timestamp_utc,packet_index,sample_index,AF3,AF4,F3,F4,FC5,FC6,O2,O1,label
2026-05-11T11:18:43.425+00:00,780,52727,156195.17489614186,156425.37551228708,156008.15785028433,156063.8807492114,156422.29097155225,156395.40182297252,156209.05532944863,156345.37861888154,TASK1
2026-05-11T11:18:43.426+00:00,780,52728,156199.73465201075,156430.2034890894,156012.98582708667,156068.44050508027,156426.85072742112,156399.9615788414,156213.6150853175,156350.47481661735,TASK1
2026-05-11T11:18:43.426+00:00,780,52729,156177.4052592999,156407.73998591184,155990.85760007592,156046.11111236943,156403.91783760997,156377.6992413639,156191.28569260665,156328.27953437323,TASK1
2026-05-11T11:18:43.426+00:00,780,52730,156162.18372132586,156392.51844793776,155975.63606210184,156031.4260162623,156388.9645205694,156363.01414525678,156176.33237556604,156313.05799639918,TASK1
2026-05-11T11:18:43.426+00:00,780,52731,156179.88630293444,156410.22102954637,155993.60686464392,156049.1285978709,156406.66710217798,156380.4485059319,156194.30317810812,156330.76057800776,TASK1
2026-05-11T11:18:43.426+00:00,780,52732,156206.97661721427,156437.3113438262,156020.42895799028,156076.21891215074,156433.7574164578,156407.53882021175,156221.39349238796,156357.8508922876,TASK1
2026-05-11T11:18:43.426+00:00,780,52733,156212.87747775047,156443.2122043624,156026.3298185265,156082.11977268694,156439.658276994,156413.43968074795,156227.29435292416,156363.48353189032,TASK1
2026-05-11T11:18:43.426+00:00,780,52734,156187.73176523825,156417.79827091674,156001.18410601426,156056.97406017472,156414.5125644818,156388.29396823572,156202.14864041194,156338.06959844465,TASK1
2026-05-11T11:18:43.426+00:00,780,52735,156173.3148900646,156403.64961667653,155987.30367270752,156042.8254059345,156400.3639102416,156374.413534929,156187.99998617172,156324.1891651379,TASK1
2026-05-11T11:18:43.426+00:00,780,52736,156193.69968100783,156424.03440761977,156007.4202427173,156063.21019687774,156420.48048025137,156394.79832587222,156208.11655618149,156344.57395608115,TASK1
2026-05-11T11:18:43.426+00:00,780,52737,156221.0582162211,156451.39294283304,156034.7787779306,156090.30051115758,156447.83901546468,156421.88864015206,156235.4750913948,156371.93249129443,TASK1
2026-05-11T11:18:43.426+00:00,780,52738,156225.08153022308,156455.41625683501,156038.80209193254,156094.32382515952,156451.86232946662,156425.911954154,156239.7666263302,156375.9558052964,TASK1
2026-05-11T11:18:43.426+00:00,780,52739,156200.47225957777,156430.53876525626,156013.92460035378,156069.71455451424,156426.7166169544,156401.03446257525,156214.88913475146,156351.07831371765,TASK1
2026-05-11T11:18:43.426+00:00,780,52740,156184.98250067024,156415.04900634874,155998.1666205128,156053.95657467324,156411.22685804687,156385.27648273425,156199.13115491046,156335.58855481012,TASK1
2026-05-11T11:18:43.426+00:00,780,52741,156203.75796601272,156434.09269262466,156017.21030678874,156073.00026094916,156430.2705443228,156404.05194807673,156217.63839931946,156354.36402015257,TASK1
2026-05-11T11:18:43.426+00:00,780,52742,156232.18938495987,156462.25589063833,156045.3735048024,156101.4316798963,156459.7748470038,156433.28802982427,156246.874481067,156383.6001019001,TASK1
2026-05-11T11:18:43.426+00:00,780,52743,156234.60337336102,156464.93809997296,156048.05571413704,156103.8456682975,156461.9206144715,156435.70201822542,156249.55669040163,156385.74586936782,TASK1
2026-05-11T11:18:43.426+00:00,780,52744,156207.31189338112,156437.64661999303,156021.03245509058,156076.55418831756,156434.3609135581,156408.14231731204,156221.72876855478,156358.1861684544,TASK1
2026-05-11T11:18:43.426+00:00,780,52745,156191.55391354012,156421.62041921858,156005.27447524958,156060.52798754312,156418.33471278366,156392.38433747104,156205.70256778033,156341.89174674652,TASK1
2026-05-11T11:18:43.426+00:00,780,52746,156209.79293701565,156439.8594426941,156023.5134987251,156078.49879008517,156436.30551532572,156410.62336094657,156223.94159125586,156360.13077022205,TASK1
2026-05-11T11:18:43.426+00:00,780,52747,156236.615030362,156466.41331510703,156050.06737113802,156105.05266249808,156462.85938773863,156437.17723335949,156250.49546366875,156387.22108450186,TASK1
2026-05-11T11:18:43.426+00:00,780,52748,156242.24766996474,156472.31417564323,156055.70001074075,156110.6853021008,156468.76024827483,156442.8098729622,156256.39632420495,156393.12194503806,TASK1
2026-05-11T11:18:43.426+00:00,780,52749,156217.63839931946,156447.70490499793,156031.35896102892,156086.34425238898,156444.15097762953,156418.20060231694,156231.78705355967,156368.51267439278,TASK1
2026-05-11T11:18:43.426+00:00,780,52750,156201.34397761154,156431.41048329,156014.79631838755,156070.31805161454,156427.8565559216,156401.90618060902,156215.22441091828,156352.21825268486,TASK1
2026-05-11T11:18:43.426+00:00,780,52751,156219.04655922015,156449.1130648986,156032.49889999616,156087.75241228967,156445.55913753022,156419.6087622176,156232.9269925269,156369.65261336,TASK1
2026-05-11T11:18:43.426+00:00,780,52752,156244.25932696572,156474.32583264422,156057.9798886752,156112.96518003524,156470.77190527582,156444.8215299632,156258.13976027246,156394.8653811056,TASK1
2026-05-11T11:18:43.426+00:00,780,52753,156246.94153630038,156477.2762629123,156060.66209800984,156115.6473893699,156473.72233554392,156447.7719602313,156260.82196960712,156397.54759044023,TASK1
2026-05-11T11:18:43.426+00:00,780,52754,156220.99116098776,156451.59410853314,156034.9799436307,156090.2334559242,156447.7719602313,156422.08980585216,156235.13981522797,156372.13365699453,TASK1
2026-05-11T11:18:43.426+00:00,780,52755,156205.50140208023,156435.83612869217,156019.2219637897,156074.20725514975,156432.0139803903,156406.33182601116,156219.65005632045,156356.10745622008,TASK1
2026-05-11T11:18:43.426+00:00,780,52756,156226.5567453571,156457.427913836,156040.0761413665,156095.79904029358,156453.80693123423,156427.18600358797,156241.04067576418,156377.43102043043,TASK1
2026-05-11T11:18:43.426+00:00,780,52757,156252.5741759031,156483.1771234485,156066.09357191247,156121.81647083955,156479.8243617802,156453.4716550674,156266.78988537667,156403.44845097643,TASK1
2026-05-11T11:18:43.426+00:00,780,52758,156257.67037363892,156488.2733211843,156071.45799058175,156126.6444476419,156484.920559516,156458.56785280321,156272.15430404595,156408.81286964568,TASK1
2026-05-11T11:18:43.426+00:00,780,52759,156236.0115332617,156466.34625987365,156049.5309292711,156104.9856072647,156462.7252772719,156436.909012426,156250.2272427353,156386.6175874016,TASK1
2026-05-11T11:18:43.426+00:00,780,52760,156223.4722046223,156453.80693123423,156036.99160063168,156092.71449955876,156450.18594863248,156424.10146285314,156237.68791409588,156374.07825876214,TASK1
2026-05-11T11:18:43.426+00:00,780,52761,156242.7841118317,156473.11883844362,156056.30350784105,156111.75818583468,156469.49785584185,156443.4133700625,156256.7316003718,156393.39016597153,TASK1
2026-05-11T11:18:43.426+00:00,780,52762,156267.99687957726,156498.3316061892,156081.51627558665,156136.70273264678,156494.44240265398,156468.6261378081,156281.94436811737,156418.60293371713,TASK1
2026-05-11T11:18:43.426+00:00,780,52763,156270.94730984536,156501.01381552382,156084.19848492127,156139.65316291488,156497.1246119886,156471.5765680762,156284.89479838547,156421.82158491868,TASK1
2026-05-11T11:18:43.426+00:00,780,52764,156244.99693453274,156475.33166114468,156058.24810960866,156113.7027876023,156471.17423667602,156445.35797183012,156258.6762021394,156395.87120960606,TASK1
2026-05-11T11:18:43.426+00:00,780,52765,156229.50717562521,156460.11012317063,156042.75835070113,156098.4812496282,156455.6844777685,156429.59999198912,156243.18644323188,156380.38145069854,TASK1
2026-05-11T11:18:43.426+00:00,780,52766,156247.74619910074,156478.08092571268,156060.99737417666,156116.4520521703,156473.92350124402,156447.83901546468,156261.4254667074,156398.62047417407,TASK1
2026-05-11T11:18:43.426+00:00,780,52767,156274.30007151366,156504.6347981256,156087.55124658957,156142.73770364973,156500.4773736569,156474.39288787756,156287.9793391203,156425.17434658698,TASK1
2026-05-11T11:18:43.426+00:00,780,52768,156277.78694364868,156508.12167026062,156091.0381187246,156146.49279671823,156503.96424579193,156477.87976001258,156291.46621125535,156428.661218722,TASK1
2026-05-11T11:18:43.426+00:00,780,52769,156253.71411487032,156484.04884148226,156066.96528994624,156122.41996793984,156479.89141701357,156454.0751521677,156267.39338247696,156404.58838994364,TASK1
2026-05-11T11:18:43.426+00:00,780,52770,156239.83368156358,156470.16840817552,156053.0848566395,156108.5395346331,156466.01098370683,156439.9264979275,156253.51294917022,156390.43973570343,TASK1
2026-05-11T11:18:43.426+00:00,780,52771,156259.95025157335,156490.2849781853,156073.46964758274,156128.65610464287,156486.39577465007,156460.04306793725,156273.62951918,156410.55630571322,TASK1
2026-05-11T11:18:43.426+00:00,780,52772,156292.94142638939,156523.5443739348,156106.72904333222,156161.91550039238,156520.72805413342,156494.3753474206,156307.96179866334,156445.15680613002,TASK1
2026-05-11T11:18:43.426+00:00,780,52773,156295.623635724,156525.95836233595,156109.41125266688,156164.32948879356,156522.87382160113,156497.05755675526,156310.10756613108,156447.5707945312,TASK1
2026-05-11T11:18:43.426+00:00,780,52774,156264.30884174214,156494.91178928755,156077.82823775153,156133.01469481166,156490.48614388538,156464.66987903952,156277.71988841533,156415.18311681546,TASK1
2026-05-11T11:18:43.426+00:00,780,52775,156253.64705963695,156483.98178624889,156066.89823471286,156122.3529127065,156479.55614084675,156453.73987600085,156266.78988537667,156404.52133471027,TASK1
2026-05-11T11:18:43.426+00:00,780,52776,156278.85982738255,156509.1945539945,156091.842781525,156147.2974595186,156504.76890859232,156478.68442281298,156292.00265312227,156429.73410245587,TASK1
2026-05-11T11:18:43.426+00:00,780,52777,156307.82768819662,156537.89419387508,156120.5424214056,156175.99709939922,156533.46854847294,156507.65228362707,156320.97051393634,156458.4337423365,TASK1
2026-05-11T11:18:43.426+00:00,780,52778,156308.0959091301,156538.16241480855,156120.81064233906,156176.53354126614,156533.46854847294,156508.188725494,156321.2387348698,156458.9701842034,TASK1
2026-05-11T11:18:43.426+00:00,780,52779,156277.85399888206,156507.65228362707,156090.56873209105,156146.02341008466,156502.95841729146,156477.67859431249,156290.7286036883,156428.19183208846,TASK1
2026-05-11T11:18:43.426+00:00,780,52780,156259.14558877295,156488.94387351797,156071.86032198195,156127.31499997556,156484.25000718236,156458.70196326994,156271.75197264575,156409.21520104588,TASK1
2026-05-11T11:18:43.426+00:00,780,52781,156275.23884478078,156505.0371295258,156087.95357798977,156143.40825598338,156500.61148412366,156474.52699834428,156287.84522865358,156425.3084570537,TASK1
2026-05-11T11:18:43.426+00:00,780,52782,156299.91517065946,156529.98167633792,156112.8981248019,156168.3528027955,156525.2878100023,156499.4715451564,156312.7897754657,156449.98478293238,TASK1
2026-05-11T11:18:43.426+00:00,780,52783,156300.45161252638,156530.24989727137,156113.16634573534,156168.88924466242,156525.82425186923,156500.00798702336,156313.05799639918,156450.5212247993,TASK1
2026-05-11T11:18:43.426+00:00,780,52784,156275.03767908068,156504.8359638257,156087.75241228967,156143.47531121675,156500.41031842356,156474.59405357766,156287.64406295348,156425.37551228708,TASK1
2026-05-11T11:18:43.426+00:00,780,52785,156258.4750364393,156488.2733211843,156071.18976964828,156126.6444476419,156483.31123391524,156457.76319000282,156271.08142031208,156408.54464871224,TASK1
2026-05-11T11:18:43.426+00:00,780,52786,156276.17761804792,156506.24412372638,156088.8923512569,156144.3470292505,156501.2820364573,156475.46577161143,156289.05222285417,156426.24723032085,TASK1
2026-05-11T11:18:43.426+00:00,780,52787,156301.65860672697,156532.32860950573,156115.17800273633,156171.03501213013,156528.8417373707,156502.2878649578,156316.00842666725,156452.5328818003,TASK1
2026-05-11T11:18:43.426+00:00,780,52788,156304.07259512812,156534.7425979069,156117.5919911375,156173.4490005313,156531.25572577186,156504.97007429242,156318.154194135,156454.94687020144,TASK1
2026-05-11T11:18:43.426+00:00,780,52789,156277.04933608166,156507.9875597939,156091.10517395797,156146.69396241833,156504.50068765887,156478.21503617943,156291.39915602197,156427.92361115498,TASK1
2026-05-11T11:18:43.426+00:00,780,52790,156261.8277981076,156492.49780088637,156075.8836359839,156131.47242444425,156489.2791496848,156462.7252772719,156276.17761804792,156412.70207318093,TASK1
2026-05-11T11:18:43.426+00:00,780,52791,156282.21258905085,156512.8825918296,156096.26842692716,156151.85721538748,156509.66394062803,156483.11006821514,156296.29418805768,156433.08686412417,TASK1
2026-05-11T11:18:43.426+00:00,780,52792,156310.10756613108,156540.77756890983,156123.8951830739,156179.7521924677,156537.55891770826,156511.00504529537,156324.1891651379,156460.9818412044,TASK1
2026-05-11T11:18:43.426+00:00,780,52793,156316.5448685342,156547.21487131296,156130.33248547703,156186.18949487084,156543.99622011138,156517.17412676502,156330.8946884745,156467.41914360752,TASK1
2026-05-11T11:18:43.426+00:00,780,52794,156294.0813653566,156524.4831472019,156107.600761366,156163.72599169327,156521.5327169338,156494.71062358745,156307.89474343,156444.68741949648,TASK1
2026-05-11T11:18:43.426+00:00,780,52795,156282.0784785841,156512.74848136288,156095.59787459348,156151.72310492076,156509.26160922783,156482.70773681495,156295.8918566575,156432.68453272397,TASK1
2026-05-11T11:18:43.426+00:00,780,52796,156304.8772579285,156535.01081884035,156117.86021207095,156174.2536633317,156531.52394670533,156505.2382952259,156318.42241506843,156454.94687020144,TASK1
2026-05-11T11:18:43.426+00:00,780,52797,156334.38156060953,156563.97867965445,156147.0962938185,156203.48974507925,156561.02824938635,156534.47437697343,156347.65849681597,156484.45117288246,TASK1
2026-05-11T11:18:43.426+00:00,780,52798,156340.01420021226,156569.87954019062,156152.9971543547,156209.39060561545,156566.92910992252,156540.64345844308,156353.55935735218,156490.35203341866,TASK1
2026-05-11T11:18:43.426+00:00,780,52799,156316.20959236735,156546.07493234574,156129.19254650982,156185.58599777054,156542.85628114417,156516.8388505982,156329.75474950726,156466.54742557375,TASK1
2026-05-11T11:18:43.426+00:00,780,52800,156301.52449626022,156531.3898362386,156114.77567133613,156171.16912259688,156527.90296410356,156501.61731262412,156315.06965340013,156451.86232946662,TASK1
2026-05-11T11:18:43.426+00:00,780,52801,156321.1046244031,156551.2381853149,156134.35579947897,156190.74925073973,156547.75131317988,156521.46566170044,156334.64978154298,156471.71067854294,TASK1
2026-05-11T11:18:43.807+00:00,781,52802,156357.58267135415,156587.98445319943,156170.83384643003,156227.22729769078,156586.37512759864,156560.0894761192,156373.0053750283,156510.06627202823,TASK1
2026-05-11T11:18:43.807+00:00,781,52803,156355.77218005326,156586.17396189854,156169.02335512917,156225.68502732337,156583.49175256392,156557.47432201795,156370.12199999357,156507.45111792698,TASK1
2026-05-11T11:18:43.807+00:00,781,52804,156321.77517673673,156551.90873764857,156134.75813087917,156191.4198030734,156548.42186551355,156522.1362140341,156335.05211294317,156472.38123087658,TASK1
2026-05-11T11:18:43.807+00:00,781,52805,156304.1396503615,156534.27321127334,156117.12260450394,156173.78427669813,156530.7863391383,156504.2324667254,156317.6848075014,156454.74570450134,TASK1
2026-05-11T11:18:43.807+00:00,781,52806,156321.8422319701,156552.2440138154,156134.82518611255,156191.48685830674,156548.75714168037,156522.20326926745,156335.38738911002,156472.98472797687,TASK1
2026-05-11T11:18:43.807+00:00,781,52807,156347.5914415826,156577.72500249444,156160.57439572507,156216.69962605234,156574.23813035942,156547.95247887998,156361.1365987225,156498.46571665592,TASK1
2026-05-11T11:18:43.807+00:00,781,52808,156350.5418718507,156581.07776416274,156164.3965440269,156219.5159458537,156577.5908920277,156551.17113008155,156364.82463655766,156501.21498122392,TASK1
2026-05-11T11:18:43.807+00:00,781,52809,156325.12793840503,156555.93205165054,156138.71438964776,156194.3702333415,156552.17695858204,156525.4889757024,156339.14248217852,156476.06926871173,TASK1
2026-05-11T11:18:43.807+00:00,781,52810,156309.90640043098,156540.97873460993,156123.4928516737,156179.14869536742,156536.95542060796,156510.5356586618,156324.1891651379,156461.11595167112,TASK1
2026-05-11T11:18:43.807+00:00,781,52811,156329.21830764035,156560.2906418193,156143.07297981656,156198.72882351026,156556.5355487508,156530.11578680464,156343.76929328075,156480.4278588805,TASK1
2026-05-11T11:18:43.807+00:00,781,52812,156357.11328472057,156588.18561889953,156170.96795689678,156226.355579657,156584.43052583103,156557.7425429514,156371.66427036098,156508.05461502727,TASK1
2026-05-11T11:18:43.807+00:00,781,52813,156361.1365987225,156591.94071196803,156175.2594918322,156230.64711459246,156588.453839833,156561.76585695337,156375.9558052964,156512.3461499627,TASK1
2026-05-11T11:18:43.807+00:00,781,52814,156336.52732807724,156567.33144132272,156150.6502211869,156205.76962301368,156563.57634825425,156536.88836537462,156351.3465346511,156487.46865838394,TASK1
2026-05-11T11:18:43.807+00:00,781,52815,156322.11045290355,156552.91456614906,156136.23334601324,156191.35274784002,156549.42769401404,156522.7397111344,156336.92965947744,156473.05178321025,TASK1
2026-05-11T11:18:43.807+00:00,781,52816,156340.34947637908,156571.42181055807,156154.47236948877,156209.59177131555,156567.66671748957,156540.97873460993,156354.9004620195,156491.0225857523,TASK1
2026-05-11T11:18:43.807+00:00,781,52817,156369.58555812662,156600.6578923056,156183.7084512363,156238.8278530631,156597.97568297095,156571.2877000913,156385.2094275009,156521.06333030024,TASK1
2026-05-11T11:18:43.807+00:00,781,52818,156371.9995465278,156602.80365977332,156185.85421870401,156241.24184146427,156600.38967137213,156573.7016884925,156387.62341590205,156523.47731870142,TASK1
2026-05-11T11:18:43.807+00:00,781,52819,156340.95297347938,156571.7570867249,156154.8076456556,156210.4634893493,156568.27021458987,156541.85045264367,156355.77218005326,156491.6260828526,TASK1
2026-05-11T11:18:43.807+00:00,781,52820,156327.07254017264,156557.60843248467,156140.92721234885,156196.3148351091,156553.85333941618,156527.70179840346,156341.35530487957,156477.74564954586,TASK1
2026-05-11T11:18:43.807+00:00,781,52821,156347.18911018243,156577.72500249444,156161.0437823586,156216.1631841854,156573.7016884925,156547.81836841325,156361.47187488936,156497.86221955565,TASK1
2026-05-11T11:18:43.807+00:00,781,52822,156374.27942446223,156604.54709584083,156187.865875705,156242.98527753178,156600.79200277233,156574.9086826931,156388.5621891692,156524.684312902,TASK1
2026-05-11T11:18:43.807+00:00,781,52823,156377.76629659728,156608.03396797585,156191.35274784002,156246.4721496668,156604.54709584083,156578.3955548281,156392.04906130422,156528.4394059705,TASK1
2026-05-11T11:18:43.807+00:00,781,52824,156352.8888050185,156583.1564763971,156166.47525626127,156221.59465808806,156579.66960426208,156553.51806324936,156367.17156972547,156503.29369345828,TASK1
2026-05-11T11:18:43.807+00:00,781,52825,156339.54481357872,156570.08070589072,156153.13126482145,156208.51888758168,156566.32561282226,156540.44229274298,156354.0957992191,156489.94970201846,TASK1
2026-05-11T11:18:43.807+00:00,781,52826,156362.3435929231,156593.14770616862,156175.93004416584,156231.3176669261,156589.39261310012,156563.2410720874,156376.62635763004,156512.74848136288,TASK1
2026-05-11T11:18:43.807+00:00,781,52827,156393.99366307183,156624.52955538387,156207.58011431457,156262.96773707482,156621.04268324884,156594.62292130265,156408.27642777876,156544.39855151158,TASK1
2026-05-11T11:18:43.807+00:00,781,52828,156402.57673294266,156633.38084618817,156216.43140511887,156271.55080694566,156629.89397405315,156603.47421210696,156417.12771858307,156553.24984231588,TASK1
2026-05-11T11:18:43.807+00:00,781,52829,156380.1132297651,156610.91734301057,156193.69968100783,156249.0873037681,156607.16224994208,156580.7424879959,156394.6642154055,156530.7863391383,TASK1
2026-05-11T11:18:43.807+00:00,781,52830,156365.6963545914,156596.50046783692,156179.28280583414,156234.6704285944,156592.47715383495,156566.32561282226,156380.2473402318,156516.36946396463,TASK1
2026-05-11T11:18:43.807+00:00,781,52831,156384.47181993388,156615.0077122459,156198.05827117662,156253.1776730034,156610.98439824395,156584.83285723123,156398.75458464082,156534.60848744016,TASK1
2026-05-11T11:18:43.807+00:00,781,52832,156407.27059927827,156637.8064915903,156220.857050521,156276.24467328127,156634.3196194553,156607.89985750912,156421.82158491868,156557.67548771805,TASK1
2026-05-11T11:18:43.807+00:00,781,52833,156408.67875917896,156639.4158171911,156222.2652104217,156277.85399888206,156635.8618898227,156609.77740404336,156422.89446865255,156559.82125518576,TASK1
2026-05-11T11:18:43.807+00:00,781,52834,156379.24151173132,156609.71034880998,156192.82796297406,156248.41675143442,156606.1564214416,156580.07193566224,156393.18900027144,156530.11578680464,TASK1
2026-05-11T11:18:43.807+00:00,781,52835,156360.8013225557,156592.07482243475,156174.6559947319,156230.24478319226,156587.98445319943,156561.63174648662,156375.01703202928,156511.9438185625,TASK1
2026-05-11T11:18:43.807+00:00,781,52836,156377.96746229738,156609.24096217644,156191.55391354012,156247.41092293392,156605.15059294112,156578.7978862283,156392.18317177094,156529.37817923762,TASK1
2026-05-11T11:18:43.807+00:00,781,52837,156404.25311377682,156635.52661365588,156217.83956501956,156273.42835347992,156631.43624442056,156605.08353770775,156418.46882325038,156555.66383071707,TASK1
2026-05-11T11:18:43.807+00:00,781,52838,156409.08109057916,156640.08636952477,156222.39932088845,156278.25633028225,156635.99600028942,156609.64329357664,156423.02857911927,156560.22358658595,TASK1
2026-05-11T11:18:43.807+00:00,781,52839,156384.74004086733,156615.74531981294,156198.05827117662,156253.91528057042,156611.65495057762,156585.03402293133,156398.68752940744,156535.61431594065,TASK1
2026-05-11T11:18:43.807+00:00,781,52840,156370.32316569367,156601.0602237058,156183.64139600293,156239.49840539673,156596.96985447046,156570.3489268242,156384.27065423378,156521.197440767,TASK1
2026-05-11T11:18:43.807+00:00,781,52841,156390.43973570343,156621.7132355825,156203.75796601272,156259.88319634,156617.62286634717,156591.0019387009,156404.92366611047,156541.85045264367,TASK1
2026-05-11T11:18:43.807+00:00,781,52842,156417.53004998327,156649.0717707958,156230.84828029256,156286.9735106198,156644.713180627,156618.3604739142,156432.28220132377,156569.20898785698,TASK1
2026-05-11T11:18:43.807+00:00,781,52843,156420.74870118484,156652.29042199734,156234.0669314941,156289.9239408879,156647.6636108951,156621.57912511576,156435.23263159188,156572.42763905853,TASK1
2026-05-11T11:18:43.807+00:00,781,52844,156393.99366307183,156625.53538388436,156207.58011431457,156263.16890277492,156620.9085727821,156594.82408700275,156408.20937254542,156545.40438001207,TASK1
2026-05-11T11:18:43.807+00:00,781,52845,156377.162799497,156608.70452030952,156190.74925073973,156246.33803920008,156604.07770920725,156577.72500249444,156391.64672990402,156528.30529550376,TASK1
2026-05-11T11:18:43.807+00:00,781,52846,156396.74292763983,156628.0164275189,156210.32937888257,156265.64994640945,156623.6578373501,156597.03690970383,156411.22685804687,156547.34898177968,TASK1
2026-05-11T11:18:43.807+00:00,781,52847,156434.5620792582,156665.5673582038,156248.14853050094,156303.46909802782,156663.08631456926,156636.73360785647,156450.65533526603,156586.77745899884,TASK1
2026-05-11T11:18:43.807+00:00,781,52848,156436.43962579247,156667.17668380457,156249.75785610173,156305.0784236286,156664.4274192366,156638.07471252378,156452.26466086681,156588.38678459963,TASK1
2026-05-11T11:18:43.807+00:00,781,52849,156401.90618060902,156633.17968048807,156215.22441091828,156270.81319937864,156628.5528693858,156602.20016267302,156416.6583319495,156552.51223474887,TASK1
2026-05-11T11:18:43.807+00:00,781,52850,156386.68464263494,156617.958142514,156200.27109387767,156255.85988233803,156613.59955234523,156586.97862469894,156401.43679397544,156537.2906967748,TASK1
2026-05-11T11:18:43.807+00:00,781,52851,156406.53299171125,156638.07471252378,156220.38766388746,156275.97645234782,156633.44790142152,156606.82697377526,156421.5533639852,156557.40726678458,TASK1
2026-05-11T11:18:44.104+00:00,782,52852,156433.6233059911,156665.43324773706,156247.74619910074,156303.3349875611,156660.80643663483,156634.453729922,156448.91189919852,156584.76580199788,TASK1
2026-05-11T11:18:44.104+00:00,782,52853,156437.64661999303,156669.18834080556,156251.7695131027,156306.82185969612,156664.82975063677,156638.47704392398,156452.666992267,156588.78911599983,TASK1
2026-05-11T11:18:44.104+00:00,782,52854,156413.03734934775,156644.57907016028,156227.1602424574,156282.21258905085,156640.2204799915,156613.59955234523,156427.78950068826,156563.91162442107,TASK1
2026-05-11T11:18:44.104+00:00,782,52855,156399.42513697446,156631.23507872046,156213.54803008414,156268.60037667755,156626.6082676182,156599.98733997194,156414.44550924844,156550.29941204778,TASK1
2026-05-11T11:18:44.104+00:00,782,52856,156421.41925351848,156652.960974331,156235.2739256947,156290.59449322158,156648.60238416222,156621.7132355825,156436.43962579247,156572.02530765836,TASK1
2026-05-11T11:18:44.104+00:00,782,52857,156449.85067246563,156681.1241723447,156263.70534464184,156319.02591216873,156677.03380310937,156650.4128754631,156464.87104473962,156600.72494753895,TASK1
2026-05-11T11:18:44.104+00:00,782,52858,156454.41042833452,156685.95214914705,156268.26510051073,156323.58566803762,156681.86177991173,156654.972631332,156469.43080060848,156605.28470340784,TASK1
2026-05-11T11:18:44.104+00:00,782,52859,156428.72827395538,156660.00177383443,156242.85116706503,156297.635292725,156655.91140459912,156629.02225601938,156444.0168671628,156579.87076996217,TASK1
2026-05-11T11:18:44.104+00:00,782,52860,156415.25017204884,156645.9201748276,156228.70251282485,156283.88896988498,156642.09802652572,156615.34298841274,156429.19766058895,156565.85622618868,TASK1
2026-05-11T11:18:44.104+00:00,782,52861,156434.83030019168,156665.50030297044,156248.2826409677,156303.46909802782,156661.6781546686,156635.19133748906,156448.7777887318,156585.43635433153,TASK1
2026-05-11T11:18:44.104+00:00,782,52862,156464.60282380614,156695.00460565145,156277.78694364868,156333.24162164232,156691.98712014998,156666.03674483736,156479.35497514665,156615.74531981294,TASK1
2026-05-11T11:18:44.104+00:00,782,52863,156465.13926567306,156696.0774893853,156278.59160644907,156334.0462844427,156693.06000388385,156666.5731867043,156480.4278588805,156616.81820354678,TASK1
2026-05-11T11:18:44.104+00:00,782,52864,156436.23846009237,156667.17668380457,156249.95902180183,156305.41369979543,156663.35453550273,156636.8677183232,156450.7223904994,156587.6491770326,TASK1
2026-05-11T11:18:44.104+00:00,782,52865,156422.08980585216,156653.0280295644,156235.54214662817,156291.26504555525,156649.20588126252,156622.71906408298,156436.5737362592,156573.23230185892,TASK1
2026-05-11T11:18:44.104+00:00,782,52866,156442.74281772884,156672.87637864068,156255.9269375714,156311.381615565,156669.3224512723,156643.10385502622,156456.95852720243,156593.61709280216,TASK1
2026-05-11T11:18:44.104+00:00,782,52867,156469.83313200867,156700.234913854,156283.2854727847,156338.74015077832,156696.41276555212,156670.19416930605,156483.7806205488,156620.707407082,TASK1
2026-05-11T11:18:44.104+00:00,782,52868,156473.85644601064,156704.5264487894,156287.30878678666,156342.76346478026,156700.70430048756,156674.21748330802,156487.53571361728,156624.4625001505,TASK1
2026-05-11T11:18:44.104+00:00,782,52869,156447.63784976458,156678.03963160986,156261.09019054056,156316.81308946764,156674.75392517494,156647.99888706193,156461.31711737122,156598.24390390443,TASK1
2026-05-11T11:18:44.104+00:00,782,52870,156432.4163117905,156662.8180936358,156246.13687349999,156301.32333056012,156659.2641662674,156632.77734908788,156446.09557939714,156583.02236593034,TASK1
2026-05-11T11:18:44.104+00:00,782,52871,156452.80110273373,156683.73932644597,156266.78988537667,156322.2445633703,156679.91717814413,156653.4303609646,156467.01681220732,156603.94359874053,TASK1
2026-05-11T11:18:44.104+00:00,782,52872,156479.35497514665,156710.29319885888,156293.34375778958,156348.7984357832,156706.471050557,156679.98423337747,156493.5706846202,156630.7656920869,TASK1
2026-05-11T11:18:44.104+00:00,782,52873,156480.96430074744,156711.6343035262,156294.6848624569,156350.13954045053,156707.81215522432,156681.3253380448,156494.91178928755,156632.1067967542,TASK1
2026-05-11T11:18:44.104+00:00,782,52874,156453.13637890058,156683.80638167934,156266.58871967657,156322.31161860365,156680.25245431095,156653.49741619793,156466.81564650722,156604.27887490735,TASK1
2026-05-11T11:18:44.104+00:00,782,52875,156437.37839905958,156667.78018090487,156250.8307398356,156306.55363876268,156664.2262535365,156637.4712154235,156451.05766666622,156588.2526741329,TASK1
2026-05-11T11:18:44.104+00:00,782,52876,156456.95852720243,156687.6285299812,156270.41086797844,156326.13376690552,156683.80638167934,156657.3195644998,156470.90601574254,156607.83280227575,TASK1
2026-05-11T11:18:44.104+00:00,782,52877,156481.63485308108,156712.0366349264,156294.81897292362,156350.5418718507,156708.21448662452,156681.72766944498,156495.04589975427,156631.97268628748,TASK1
2026-05-11T11:18:44.104+00:00,782,52878,156482.9759577484,156713.64596052718,156296.4282985244,156352.1511974515,156709.8238122253,156683.0687741123,156496.65522535506,156633.58201188827,TASK1
2026-05-11T11:18:44.104+00:00,782,52879,156455.6844777685,156686.35448054725,156269.13681854447,156324.85971747155,156682.26411131193,156655.7772941324,156469.36374537513,156606.55875284178,TASK1
2026-05-11T11:18:44.104+00:00,782,52880,156440.4629397944,156671.13294257317,156254.1835015039,156309.36995856403,156667.04257333785,156640.8239770918,156454.14220740105,156591.6054358012,TASK1
2026-05-11T11:18:44.104+00:00,782,52881,156461.38417260456,156692.05417538335,156275.10473431405,156330.55941230766,156687.96380614804,156661.4769889685,156475.06344021123,156612.52666861136,TASK1
2026-05-11T11:18:44.104+00:00,782,52882,156490.35203341866,156721.02203619742,156303.80437419467,156359.52727312176,156716.9316669621,156690.1766288491,156504.29952195878,156641.22630849198,TASK1
2026-05-11T11:18:44.104+00:00,782,52883,156495.71645208792,156726.11823393323,156309.16879286393,156364.891691791,156722.2960856314,156695.54104751837,156509.66394062803,156646.59072716124,TASK1
2026-05-11T11:18:44.104+00:00,782,52884,156468.96141397493,156699.09497488677,156282.14553381747,156337.86843274455,156695.2728265849,156668.78600940536,156482.64068158157,156619.56746811478,TASK1
2026-05-11T11:18:44.104+00:00,782,52885,156449.7165619989,156680.11834384422,156262.90068184145,156318.891801702,156676.02797460888,156649.8093783628,156463.66405053902,156600.59083707223,TASK1
2026-05-11T11:18:44.104+00:00,782,52886,156469.29669014175,156699.9666929205,156282.74903091777,156338.74015077832,156695.60810275175,156669.38950650566,156483.24417868187,156619.9027442816,TASK1
2026-05-11T11:18:44.104+00:00,782,52887,156501.4832021574,156731.61676306924,156314.3991010665,156370.6584418605,156727.25817290045,156701.5760185213,156515.16246976404,156651.55281443032,TASK1
2026-05-11T11:18:44.104+00:00,782,52888,156507.65228362707,156737.7858445389,156320.56818253614,156376.82752333014,156733.42725437012,156707.74509999098,156521.3315512337,156657.7218959,TASK1
2026-05-11T11:18:44.104+00:00,782,52889,156476.33748964517,156706.73927149049,156289.5216094877,156345.51272934827,156702.11246038822,156676.43030600908,156490.01675725184,156626.67532285157,TASK1
2026-05-11T11:18:44.104+00:00,782,52890,156455.4833120684,156686.15331484715,156268.93565284437,156324.65855177146,156681.25828281144,156655.5761284323,156469.43080060848,156605.82114527476,TASK1
2026-05-11T11:18:44.104+00:00,782,52891,156480.15963794704,156710.8296407258,156293.81314442315,156349.20076718339,156707.00749242393,156680.65478571114,156493.9730160204,156630.7656920869,TASK1
2026-05-11T11:18:44.104+00:00,782,52892,156511.00504529537,156741.40682714066,156324.390330838,156379.77795359824,156737.58467883882,156711.231972126,156524.55020243526,156661.34287850175,TASK1
2026-05-11T11:18:44.104+00:00,782,52893,156513.41903369653,156743.55259460837,156326.26787737224,156381.92372106595,156739.73044630652,156713.3777395937,156526.96419083644,156663.75686690293,TASK1
2026-05-11T11:18:44.104+00:00,782,52894,156477.81270477924,156708.21448662452,156291.19799032187,156346.58561308213,156704.39233832268,156678.03963160986,156491.89430378607,156628.1505379856,TASK1
2026-05-11T11:18:44.104+00:00,782,52895,156455.88564346856,156686.0192043804,156269.27092901123,156324.65855177146,156682.19705607856,156656.1125702992,156469.96724247542,156605.95525574152,TASK1
2026-05-11T11:18:44.104+00:00,782,52896,156478.95264374645,156709.35442559177,156292.3379292891,156347.72555204935,156705.5322772899,156679.44779151055,156493.30246368676,156629.02225601938,TASK1
2026-05-11T11:18:44.104+00:00,782,52897,156515.96713256443,156746.36891440974,156329.08419717362,156384.47181993388,156742.27854517443,156716.1940593951,156530.04873157127,156666.03674483736,TASK1
2026-05-11T11:18:44.104+00:00,782,52898,156525.0866443022,156755.22020521405,156338.20370891137,156393.59133167163,156751.39805691218,156725.31357113284,156539.16824330905,156675.15625657514,TASK1
2026-05-11T11:18:44.104+00:00,782,52899,156493.7718503203,156724.17363216562,156306.8889149295,156362.5447586232,156720.0832629303,156693.99877715096,156507.5852283937,156643.84146259323,TASK1
2026-05-11T11:18:44.104+00:00,782,52900,156471.5765680762,156702.24657085497,156284.96185361885,156340.34947637908,156698.15620161965,156672.0717158403,156485.38994614957,156621.9144012826,TASK1
2026-05-11T11:18:44.104+00:00,782,52901,156493.0342427533,156723.70424553205,156306.15130736248,156361.8071510562,156719.8820972302,156693.5293905174,156506.84762082668,156643.3720759597,TASK1
2026-05-11T11:18:44.104+00:00,782,52902,156527.0983013032,156757.50008314848,156339.94714497888,156395.87120960606,156753.67793484664,156727.5934490673,156540.91167937656,156677.43613450957,TASK1
2026-05-11T11:18:44.104+00:00,782,52903,156532.46271997245,156763.1327227512,156345.57978458164,156401.50384920882,156759.0423535159,156732.95786773655,156546.5443189793,156683.0687741123,TASK1
2026-05-11T11:18:44.104+00:00,782,52904,156497.1246119886,156727.7946147674,156310.50989753127,156366.16574122498,156723.70424553205,156697.6197597527,156511.20621099547,156647.99888706193,TASK1
2026-05-11T11:18:44.104+00:00,782,52905,156477.0750972122,156707.74509999098,156290.46038275486,156346.11622644856,156703.65473075566,156677.57024497632,156491.4249171525,156627.9493722855,TASK1
2026-05-11T11:18:44.104+00:00,782,52906,156503.89719055858,156734.56719333734,156317.5506970347,156373.2065407284,156730.47682410202,156704.39233832268,156518.2470104989,156655.03968656535,TASK1
2026-05-11T11:18:44.104+00:00,782,52907,156557.80959818477,156788.2113800301,156371.1948837274,156427.1189483546,156786.8032201294,156760.45051341658,156574.57340652627,156711.09786165928,TASK1
2026-05-11T11:18:44.104+00:00,782,52908,156557.3402115512,156787.7419933965,156370.72549709387,156426.64956172105,156785.26094976199,156758.6400221157,156573.03113615882,156709.55559129184,TASK1
2026-05-11T11:18:44.104+00:00,782,52909,156512.3461499627,156742.47971087453,156325.73143550532,156381.92372106595,156738.92578350613,156712.30485585984,156526.96419083644,156663.220425036,TASK1
2026-05-11T11:18:44.104+00:00,782,52910,156494.44240265398,156724.57596356582,156307.82768819662,156364.01997375727,156721.02203619742,156694.6693294846,156509.06044352773,156645.3166777273,TASK1
2026-05-11T11:18:44.104+00:00,782,52911,156520.1916122665,156750.32517317834,156333.8451187426,156389.7691833698,156746.77124580994,156720.41853909713,156534.80965314026,156671.60232920674,TASK1
2026-05-11T11:18:44.104+00:00,782,52912,156556.26732781736,156786.93733059612,156369.71966859337,156425.17434658698,156783.249292761,156757.09775174828,156570.81831345777,156707.4768790575,TASK1
2026-05-11T11:18:44.104+00:00,782,52913,156561.63174648662,156792.03352833193,156374.81586632918,156430.53876525626,156788.88193236373,156762.46217041757,156575.91451119358,156712.5730767933,TASK1
2026-05-11T11:18:44.104+00:00,782,52914,156528.17118503703,156758.30474594887,156341.62352581305,156396.8099828732,156755.15314998067,156728.7333880345,156542.18572881052,156678.84429441026,TASK1
2026-05-11T11:18:44.104+00:00,782,52915,156510.5356586618,156740.66921957364,156323.9879994378,156378.9062355645,156737.24940267197,156710.8296407258,156524.28198150182,156660.94054710155,TASK1
2026-05-11T11:18:44.104+00:00,782,52916,156534.1391008066,156764.27266171845,156347.32322064915,156402.5096777093,156760.85284481678,156734.43308287062,156547.88542364663,156684.54398924636,TASK1
2026-05-11T11:18:44.104+00:00,782,52917,156563.91162442107,156794.0451853329,156377.0957442636,156432.28220132377,156790.8935893647,156764.20560648508,156577.92616819454,156714.31651286082,TASK1
2026-05-11T11:18:44.104+00:00,782,52918,156564.17984535452,156794.31340626636,156377.0957442636,156432.28220132377,156790.69242366462,156764.20560648508,156577.92616819454,156714.5847337943,TASK1
2026-05-11T11:18:44.104+00:00,782,52919,156532.06038857225,156761.92572855065,156344.97628748135,156400.43096547495,156758.30474594887,156732.0861497028,156545.80671141227,156682.73349794548,TASK1
2026-05-11T11:18:44.104+00:00,782,52920,156515.2295249974,156744.82664404233,156328.1454239065,156383.6001019001,156741.47388237403,156715.25528612794,156528.70762690395,156665.90263437064,TASK1
2026-05-11T11:18:44.104+00:00,782,52921,156537.22364154144,156766.55253965288,156349.87131951706,156405.59421844414,156763.7362198515,156737.51762360544,156550.96996438145,156687.89675091466,TASK1
2026-05-11T11:18:44.104+00:00,782,52922,156577.9932234279,156807.59034247283,156390.909122337,156446.09557939714,156806.65156920571,156780.16475202618,156593.34887186871,156730.54387933537,TASK1
2026-05-11T11:18:44.104+00:00,782,52923,156588.453839833,156818.31917981137,156401.36973874207,156456.8244167357,156817.38040654425,156790.8935893647,156604.07770920725,156741.54093760738,TASK1
2026-05-11T11:18:44.104+00:00,782,52924,156546.1419875791,156776.00732755748,156358.7896655547,156414.5125644818,156772.92278682263,156746.16774870965,156559.62008948566,156696.8150969523,TASK1
2026-05-11T11:18:44.104+00:00,782,52925,156528.50646120385,156758.10358024877,156341.15413917947,156396.87703810656,156755.01903951395,156728.26400140094,156541.71634217695,156678.91134964363,TASK1
2026-05-11T11:18:44.104+00:00,782,52926,156547.28192654633,156776.61082465778,156359.92960452195,156415.65250344903,156774.06272578987,156747.0394667434,156560.4918075194,156697.95503591956,TASK1
2026-05-11T11:18:44.104+00:00,782,52927,156571.1535896246,156800.7507086695,156384.06948853369,156439.5241665273,156798.2026098016,156771.17935075512,156584.3634705977,156721.82669899781,TASK1
2026-05-11T11:18:44.104+00:00,782,52928,156571.95825242499,156801.5553714699,156384.6059304006,156440.0606083942,156798.47083073505,156771.9840135555,156584.8999124646,156722.36314086473,TASK1
2026-05-11T11:18:44.104+00:00,782,52929,156543.05744684426,156773.1910077561,156355.97334575336,156411.42802374696,156769.8382460878,156743.35142890827,156556.26732781736,156693.7305562175,TASK1
2026-05-11T11:18:44.104+00:00,782,52930,156529.17701353753,156759.31057444937,156342.36113338007,156397.54759044023,156756.22603371454,156729.739216535,156542.65511544407,156680.11834384422,TASK1
2026-05-11T11:18:44.104+00:00,782,52931,156554.3897812831,156784.2551212615,156367.3056801922,156422.7603581858,156781.17058052664,156755.22020521405,156567.86788318967,156705.06289065632,TASK1
2026-05-11T11:18:44.104+00:00,782,52932,156586.03985143182,156815.63697047674,156398.68752940744,156454.41042833452,156812.82065067536,156786.6020544293,156599.24973240492,156736.17651893813,TASK1
2026-05-11T11:18:44.104+00:00,782,52933,156590.33138636724,156819.92850541216,156402.97906434286,156458.70196326994,156817.11218561078,156790.3571474978,156603.54126734033,156740.46805387354,TASK1
2026-05-11T11:18:44.104+00:00,782,52934,156563.8445691877,156793.44168823262,156376.22402622987,156431.67870422348,156790.3571474978,156763.60210938478,156576.78622922732,156713.981236694,TASK1
2026-05-11T11:18:44.104+00:00,782,52935,156550.50057774788,156779.82947585933,156362.88003479005,156418.0664918502,156776.7449351245,156750.52633887844,156563.4422377875,156700.63724525418,TASK1
2026-05-11T11:18:44.104+00:00,782,52936,156572.4946942919,156802.09181333682,156384.87415133405,156440.59705026113,156799.007272602,156772.52045542246,156585.43635433153,156722.6313617982,TASK1
2026-05-11T11:18:44.107+00:00,782,52937,156600.72494753895,156831.5961160178,156414.24434354834,156469.69902154195,156827.97513341607,156801.42126100315,156614.6053808457,156751.733333079,TASK1
2026-05-11T11:18:44.107+00:00,782,52938,156603.67537780706,156834.010104419,156416.92655288297,156472.38123087658,156830.6573427507,156804.37169127126,156617.82403204727,156754.41554241366,TASK1
2026-05-11T11:18:44.107+00:00,782,52939,156574.77457222634,156805.10929883827,156388.29396823572,156444.0168671628,156802.02475810345,156775.739106624,156588.92322646655,156725.51473683293,TASK1
2026-05-11T11:18:44.107+00:00,782,52940,156559.01659238536,156789.3513189973,156372.26776746128,156427.99066638836,156785.998557329,156759.71290584956,156573.16524662558,156709.4885360585,TASK1
2026-05-11T11:18:44.107+00:00,782,52941,156580.47426706244,156810.80899367438,156393.4572212049,156449.44834106544,156807.18801107263,156781.17058052664,156594.62292130265,156730.94621073556,TASK1
2026-05-11T11:18:44.107+00:00,782,52942,156608.10102320922,156838.43574982116,156420.8157564182,156477.34331814566,156834.8147672194,156808.52911573995,156621.98145651596,156758.57296688235,TASK1
2026-05-11T11:18:44.107+00:00,782,52943,156610.24679067693,156840.58151728887,156422.9615238859,156479.48908561337,156836.9605346871,156810.67488320766,156624.12722398367,156760.71873435006,TASK1
2026-05-11T11:18:44.107+00:00,782,52944,156581.61420602968,156811.94893264162,156394.59716017212,156450.58828003265,156808.32795003985,156781.77407762693,156595.49463933642,156732.0861497028,TASK1
2026-05-11T11:18:44.107+00:00,782,52945,156566.66088898908,156796.72739466754,156379.64384313152,156435.3667420586,156793.1064120658,156766.82076058636,156580.54132229582,156716.86461172873,TASK1
2026-05-11T11:18:44.107+00:00,782,52946,156588.38678459963,156818.98973214504,156401.63795967554,156457.09263766915,156815.1005286098,156788.81487713035,156602.53543883984,156738.85872827275,TASK1
2026-05-11T11:18:44.107+00:00,782,52947,156616.81820354678,156847.1529301587,156429.80115768922,156485.25583568285,156843.2637266235,156816.97807514406,156630.966857787,156767.02192628646,TASK1
2026-05-11T11:18:44.107+00:00,782,52948,156618.69575008104,156848.7622557595,156431.67870422348,156487.40160315056,156844.87305222428,156818.58740074484,156632.57618338778,156768.63125188721,TASK1
2026-05-11T11:18:44.107+00:00,782,52949,156589.52672356684,156819.86145017878,156402.5096777093,156457.96435570292,156815.7040257101,156789.41837423065,156603.4071568736,156739.46222537305,TASK1
2026-05-11T11:18:44.107+00:00,782,52950,156574.3051855928,156804.37169127126,156387.0199188018,156442.4745967954,156800.48248773604,156774.1968362566,156587.91739796606,156724.240687399,TASK1
2026-05-11T11:18:44.107+00:00,782,52951,156598.71329053797,156829.0480171499,156411.69624468044,156467.15092267405,156825.1588136147,156798.6049412018,156612.32550291126,156748.91701327765,TASK1
2026-05-11T11:18:44.107+00:00,782,52952,156647.2612794949,156877.86422704032,156460.24423363735,156515.96713256443,156876.38901190626,156849.5669185599,156663.8239221363,156799.87899063574,TASK1
2026-05-11T11:18:44.107+00:00,782,52953,156651.55281443032,156881.88754104226,156464.53576857276,156520.52688843332,156879.87588404128,156853.59023256184,156667.57901520477,156803.36586277076,TASK1
2026-05-11T11:18:44.107+00:00,782,52954,156604.41298537407,156834.47949105257,156417.12771858307,156473.11883844362,156830.59028751735,156804.3046360379,156618.29341868084,156754.08026624683,TASK1
2026-05-11T11:18:44.107+00:00,782,52955,156583.5588077973,156813.89353440923,156396.8099828732,156452.26466086681,156810.00433087398,156783.4504584611,156597.43924110403,156733.49430960347,TASK1
2026-05-11T11:18:44.107+00:00,782,52956,156603.4071568736,156833.74188348552,156416.6583319495,156472.11300994313,156829.58445901686,156803.03058660394,156617.01936924687,156753.3426586798,TASK1
2026-05-11T11:18:44.107+00:00,782,52957,156633.98434328847,156864.05084896693,156446.69907649743,156502.4219754245,156860.1616454317,156833.6077730188,156647.59655566173,156783.91984509464,TASK1
2026-05-11T11:18:44.107+00:00,782,52958,156637.73943635696,156868.07416296887,156450.7223904994,156506.177068493,156864.18495943365,156837.63108702077,156651.88809059715,156787.9431590966,TASK1
2026-05-11T11:18:44.107+00:00,782,52959,156608.83863077624,156839.44157832162,156422.08980585216,156477.54448384576,156835.28415385296,156808.73028144005,156623.2555059499,156759.31057444937,TASK1
2026-05-11T11:18:44.107+00:00,782,52960,156594.1535346691,156824.48826128105,156407.13648881155,156462.59116680516,156820.33083681235,156793.77696439944,156608.03396797585,156744.35725740876,TASK1
2026-05-11T11:18:44.107+00:00,782,52961,156617.7569768139,156847.8234824924,156430.4717100229,156485.9263880165,156844.2024998906,156817.64862747773,156631.63741012066,156767.96069955357,TASK1
2026-05-11T11:18:44.107+00:00,782,52962,156648.0659422953,156878.13244797377,156460.7806755043,156516.2353534979,156874.51146537202,156847.9575929591,156661.94637560204,156798.0014441015,TASK1
2026-05-11T11:18:44.107+00:00,782,52963,156651.55281443032,156881.6193201088,156464.80398950624,156519.9904465664,156878.26655844052,156851.7126860276,156665.70146867054,156801.75653717,TASK1
2026-05-11T11:18:44.107+00:00,782,52964,156626.0047705179,156856.74182853004,156439.5241665273,156494.91178928755,156853.25495639502,156826.499918282,156640.28753522487,156776.67787989113,TASK1
2026-05-11T11:18:44.107+00:00,782,52965,156613.19722094503,156843.6660580237,156426.44839602095,156481.83601878118,156840.17918588867,156813.69236870913,156627.2117647185,156763.87033031826,TASK1
2026-05-11T11:18:44.107+00:00,782,52966,156636.80066308982,156867.2695001685,156450.05183816573,156505.439460926,156863.78262803346,156837.29581085392,156651.08342779678,156787.47377246304,TASK1
2026-05-11T11:18:44.107+00:00,782,52967,156674.88803564166,156905.35687272032,156488.13921071758,156543.25861254436,156903.4793261861,156876.99250900655,156690.51190501594,156827.17047061567,TASK1
2026-05-11T11:18:44.107+00:00,782,52968,156676.22914030898,156906.9661983211,156489.21209445145,156544.59971721168,156904.8204308534,156878.06539274042,156691.85300968325,156828.2433543495,TASK1
2026-05-11T11:18:44.107+00:00,782,52969,156636.33127645627,156866.80011353493,156449.04600966524,156504.4336324255,156863.3132413999,156836.5582032869,156650.34582022973,156787.0043858295,TASK1
2026-05-11T11:18:44.107+00:00,782,52970,156614.94065701254,156845.4094940912,156427.92361115498,156483.31123391524,156841.92262195618,156815.43580477664,156628.955200786,156765.8819873192,TASK1
2026-05-11T11:18:44.107+00:00,782,52971,156635.32544795578,156865.79428503444,156448.04018116475,156503.69602485848,156862.03919196595,156835.82059571988,156649.0717707958,156785.998557329,TASK1
2026-05-11T11:18:44.107+00:00,782,52972,156666.1708553041,156896.63969238277,156478.61736757963,156534.27321127334,156892.88459931427,156866.6660030682,156679.91717814413,156816.57574374386,TASK1
2026-05-11T11:18:44.107+00:00,782,52973,156666.70729717103,156897.44435518316,156479.15380944655,156534.80965314026,156893.4210411812,156867.20244493513,156680.45362001105,156817.11218561078,TASK1
2026-05-11T11:18:44.107+00:00,782,52974,156633.24673572142,156863.7155728001,156445.9614689304,156501.34909169067,156859.69225879814,156833.47366255207,156646.724837628,156783.38340322772,TASK1
2026-05-11T11:18:44.107+00:00,782,52975,156614.8065465458,156845.007162691,156427.5212797548,156482.90890251505,156840.98384868907,156815.03347337645,156628.28464845236,156764.9432140521,TASK1
2026-05-11T11:18:44.107+00:00,782,52976,156638.4099886906,156868.87882576926,156451.39294283304,156506.51234465983,156865.1237327008,156838.63691552126,156651.88809059715,156788.5466561969,TASK1
2026-05-11T11:18:44.387+00:00,783,52977,156672.20582630704,156902.6746633857,156484.920559516,156540.30818227626,156898.65134938376,156872.16453220422,156685.41570728013,156822.34249381334,TASK1
2026-05-11T11:18:44.390+00:00,783,52978,156680.5206752444,156910.98951232308,156492.9671875199,156548.62303121365,156906.69797738767,156880.74760207505,156693.7305562175,156830.6573427507,TASK1
2026-05-11T11:18:44.390+00:00,783,52979,156651.08342779678,156881.8204858089,156463.79816100575,156519.185783766,156877.26072994003,156851.57857556088,156664.56152970332,156801.22009530306,TASK1
2026-05-11T11:18:44.390+00:00,783,52980,156631.83857582076,156862.57563383286,156445.08975089667,156500.20915272346,156858.28409889745,156832.33372358486,156645.3166777273,156782.2434642605,TASK1
2026-05-11T11:18:44.390+00:00,783,52981,156655.44201796554,156885.91085504423,156468.424972108,156523.81259486824,156881.88754104226,156855.6689447962,156668.65189893864,156805.57868547185,TASK1
2026-05-11T11:18:44.390+00:00,783,52982,156687.6285299812,156918.09736705985,156500.34326319018,156555.46266501697,156914.0740530579,156887.85545681184,156700.5701900208,156837.49697655402,TASK1
2026-05-11T11:18:44.390+00:00,783,52983,156691.1154021162,156921.85246012834,156504.36657719212,156558.949537152,156917.56092519293,156891.6105498803,156704.3252830893,156841.2520696225,TASK1
2026-05-11T11:18:44.390+00:00,783,52984,156658.45950346702,156888.92834054568,156471.97889947638,156526.2936385028,156884.90502654374,156858.95465123112,156671.66938444012,156808.59617097332,TASK1
2026-05-11T11:18:44.390+00:00,783,52985,156638.67820962408,156869.14704670274,156451.9293847,156506.51234465983,156865.1237327008,156838.9051364547,156651.88809059715,156788.81487713035,TASK1
2026-05-11T11:18:44.390+00:00,783,52986,156661.20876803502,156891.40938418024,156474.45994311094,156528.77468213733,156887.65429111174,156861.1674739322,156674.15042807464,156811.07721460785,TASK1
2026-05-11T11:18:44.390+00:00,783,52987,156692.3223963168,156922.523012462,156505.30535045927,156559.62008948566,156918.49969846004,156892.0128812805,156704.99583542297,156842.19084288963,TASK1
2026-05-11T11:18:44.390+00:00,783,52988,156695.54104751837,156925.7416636636,156508.7922225943,156563.10696162068,156922.25479152854,156895.49975341556,156708.75092849147,156845.67771502468,TASK1
2026-05-11T11:18:44.390+00:00,783,52989,156661.2758232684,156891.20821848014,156474.79521927776,156528.8417373707,156887.7213463451,156861.50275009903,156674.48570424147,156811.41249077467,TASK1
2026-05-11T11:18:44.390+00:00,783,52990,156643.3720759597,156873.30447117143,156456.35503010213,156510.66976912852,156870.08581996986,156843.33078185687,156656.3137359993,156793.508743466,TASK1
2026-05-11T11:18:44.390+00:00,783,52991,156672.0717158403,156902.54055291897,156485.59111184967,156539.90585087606,156899.05368078395,156872.29864267094,156685.28159681338,156822.74482521354,TASK1
2026-05-11T11:18:44.390+00:00,783,52992,156710.96375119252,156941.43258827121,156524.4831472019,156578.7978862283,156937.67749520272,156911.19067802318,156724.17363216562,156861.90508149922,TASK1
2026-05-11T11:18:44.390+00:00,783,52993,156718.742158263,156948.94277440818,156532.26155427235,156586.3080723653,156945.45590227316,156918.96908509362,156731.95203923606,156869.68348856966,TASK1
2026-05-11T11:18:44.390+00:00,783,52994,156685.28159681338,156915.4822129586,156498.5327718893,156552.57928998224,156911.7271198901,156885.24030271056,156698.49147778648,156836.22292712008,TASK1
2026-05-11T11:18:44.390+00:00,783,52995,156666.7743524044,156897.5114104165,156480.29374841377,156535.48020547393,156893.8233725814,156867.33655540185,156680.85595141124,156817.8497931778,TASK1
2026-05-11T11:18:44.390+00:00,783,52996,156694.13288761768,156924.86994562982,156507.65228362707,156563.10696162068,156921.1819077947,156894.9633115486,156708.21448662452,156845.2083283911,TASK1
2026-05-11T11:18:44.390+00:00,783,52997,156743.21731844154,156973.95437645368,156556.7367144509,156611.92317151107,156972.6803270197,156946.72995170712,156759.71290584956,156896.43852668267,TASK1
2026-05-11T11:18:44.390+00:00,783,52998,156746.70419057657,156977.17302765523,156559.95536565248,156615.14182271264,156975.8989782213,156949.94860290867,156763.19977798458,156899.38895695077,TASK1
2026-05-11T11:18:44.390+00:00,783,52999,156688.5673032483,156919.036140327,156501.81847832422,156557.27315631785,156915.34810249187,156889.6659481127,156702.9171231886,156839.1063021548,TASK1
2026-05-11T11:18:44.390+00:00,783,53000,156662.6169279357,156893.08576501437,156475.59988207815,156531.32278100523,156889.39772717925,156863.44735186663,156676.96674787602,156813.15592684218,TASK1
2026-05-11T11:18:44.390+00:00,783,53001,156686.48859101397,156916.6892071592,156499.4715451564,156555.1944440835,156913.2693902575,156887.58723587837,156700.83841095428,156837.29581085392,TASK1
2026-05-11T11:18:44.390+00:00,783,53002,156722.69841703156,156953.16725411025,156535.94959210747,156591.67249103455,156949.74743720857,156924.06528282943,156737.04823697187,156873.77385780498,TASK1
2026-05-11T11:18:44.390+00:00,783,53003,156726.72173103353,156957.1905681122,156539.97290610944,156595.42758410305,156954.038972144,156928.0885968314,156741.07155097384,156877.79717180695,TASK1
2026-05-11T11:18:44.390+00:00,783,53004,156691.9200649166,156922.3889019953,156505.439460926,156560.62591798615,156919.2373060271,156893.28693071447,156706.2698848569,156842.99550569002,TASK1
2026-05-11T11:18:44.390+00:00,783,53005,156674.01631760792,156904.75337562006,156487.53571361728,156543.25861254436,156901.33355871838,156875.65140433924,156688.63435848168,156825.09175838134,TASK1
2026-05-11T11:18:44.390+00:00,783,53006,156703.78884122238,156934.79412016796,156517.0400162983,156573.03113615882,156931.10608233284,156905.4239279537,156718.6751030296,156855.13250292925,TASK1
2026-05-11T11:18:44.390+00:00,783,53007,156743.75376030846,156974.22259738712,156557.00493538438,156612.72783431146,156971.07100141892,156945.12062610633,156758.37180118225,156894.5609801484,TASK1
2026-05-11T11:18:44.390+00:00,783,53008,156750.1910627116,156980.65989979028,156563.71045872098,156618.89691578114,156977.50830382208,156951.55792850946,156764.5408826519,156900.99828255156,TASK1
2026-05-11T11:18:44.390+00:00,783,53009,156714.85295472774,156945.05357087296,156527.8359088702,156583.5588077973,156941.90197490476,156915.95159959214,156728.9345537346,156865.39195363424,TASK1
2026-05-11T11:18:44.390+00:00,783,53010,156694.80343995136,156925.27227703002,156508.05461502727,156563.77751395435,156922.12068106182,156895.90208481575,156708.8850389582,156845.6106597913,TASK1
2026-05-11T11:18:44.390+00:00,783,53011,156721.62553329772,156952.09437037638,156534.60848744016,156590.33138636724,156948.67455347473,156922.7241781621,156735.70713230455,156872.43275313766,TASK1
2026-05-11T11:18:44.390+00:00,783,53012,156755.95781278107,156986.42664985973,156569.20898785698,156624.6636658506,156982.7386120246,156957.32467857894,156769.77119085446,156906.765032621,TASK1
2026-05-11T11:18:44.390+00:00,783,53013,156757.8353593153,156988.304196394,156571.08653439122,156626.54121238485,156984.61615855884,156958.9340041797,156771.6487373887,156908.91080008872,TASK1
2026-05-11T11:18:44.390+00:00,783,53014,156715.5235070614,156945.99234414008,156529.0429030708,156584.22936013094,156942.30430630496,156916.6221519258,156729.60510606825,156866.59894783483,TASK1
2026-05-11T11:18:44.390+00:00,783,53015,156696.01043415195,156926.4792712306,156509.5298301613,156564.71628722147,156923.05945432893,156897.1090790163,156710.36025409223,156847.08587492534,TASK1
2026-05-11T11:18:44.390+00:00,783,53016,156722.36314086473,156952.8319779434,156535.48020547393,156591.0019387009,156949.47921627513,156923.05945432893,156736.78001603842,156873.17036070468,TASK1
2026-05-11T11:18:44.390+00:00,783,53017,156760.71873435006,156991.18757142872,156573.83579895922,156629.08931125276,156987.83480976042,156961.6832687477,156775.1356095237,156911.25773325653,TASK1
2026-05-11T11:18:44.390+00:00,783,53018,156764.742048352,156994.9426644972,156577.8591129612,156633.38084618817,156991.8581237624,156965.70658274967,156779.15892352568,156915.2810472585,TASK1
2026-05-11T11:18:44.390+00:00,783,53019,156730.74504503547,156960.94566118068,156544.13033057813,156599.38384287164,156957.59289951238,156931.44135849967,156744.89369927568,156881.28404394197,TASK1
2026-05-11T11:18:44.390+00:00,783,53020,156710.96375119252,156941.43258827121,156524.3490367352,156579.6025490287,156938.07982660292,156911.66006465672,156725.11240543274,156861.50275009903,TASK1
2026-05-11T11:18:44.390+00:00,783,53021,156740.19983294007,156970.40044908528,156553.04867661578,156608.83863077624,156967.04768741698,156940.62792547082,156754.34848718028,156890.4706109131,TASK1
2026-05-11T11:18:44.390+00:00,783,53022,156776.1414380242,157006.34205416942,156588.99028169992,156644.78023586038,157002.72107156765,156976.56953055493,156790.29009226442,156926.6804369307,TASK1
2026-05-11T11:18:44.390+00:00,783,53023,156779.8965310927,157009.82892630444,156592.74537476842,156648.2671079954,157006.47616463614,156980.32462362343,156794.0451853329,156930.16730906573,TASK1
2026-05-11T11:18:44.390+00:00,783,53024,156739.46222537305,156969.66284151826,156552.8475109157,156608.10102320922,156966.5783007834,156940.15853883725,156753.87910054674,156890.00122427955,TASK1
2026-05-11T11:18:44.390+00:00,783,53025,156716.99872219548,156946.93111740722,156530.11578680464,156585.63752003163,156943.84657667237,156917.4268147262,156731.14737643566,156867.53772110195,TASK1
2026-05-11T11:18:44.390+00:00,783,53026,156742.74793180797,156972.6803270197,156555.86499641716,156611.11850871067,156969.86400721836,156943.71246620564,156756.62836511474,156893.28693071447,TASK1
2026-05-11T11:18:44.390+00:00,783,53027,156796.66033943417,157026.5927346459,156610.04562497683,156665.03091633687,157026.45862417918,157000.30708316647,156813.49120300903,156949.8815476753,TASK1
2026-05-11T11:18:44.390+00:00,783,53028,156796.4591737341,157026.5927346459,156609.84445927673,156664.56152970332,157025.18457474525,156999.03303373253,156812.21715357507,156948.87571917483,TASK1
2026-05-11T11:18:44.390+00:00,783,53029,156742.88204227472,156972.7473822531,156555.9991068839,156610.71617731047,156969.7298967516,156943.31013480545,156756.76247558146,156893.15282024775,TASK1
2026-05-11T11:18:44.390+00:00,783,53030,156719.3456553633,156949.21099534165,156532.46271997245,156587.4480113325,156946.19350984017,156920.04196882749,156733.49430960347,156869.88465426976,TASK1
2026-05-11T11:18:44.390+00:00,783,53031,156746.4359696431,156976.56953055493,156559.55303425228,156614.8065465458,156973.28382412,156946.86406217385,156760.5846238833,156896.9749685496,TASK1
2026-05-11T11:18:44.390+00:00,783,53032,156784.7915631284,157014.65690310678,156597.9086277376,156653.1621400311,157011.90763853877,156985.21965565914,156798.94021736862,156935.06234110144,TASK1
2026-05-11T11:18:44.390+00:00,783,53033,156788.5466561969,157018.68021710875,156601.66372080607,156656.9172330996,157015.66273160727,156988.97474872763,156802.69531043712,156938.81743416993,TASK1
2026-05-11T11:18:44.390+00:00,783,53034,156751.86744354575,156982.0010044576,156565.2527290884,156619.96979951498,156978.9835189561,156952.29553607648,156766.01609778596,156902.40644245222,TASK1
2026-05-11T11:18:44.390+00:00,783,53035,156733.15903343665,156963.024373415,156546.81253991276,156601.52961033935,156960.275108847,156933.85534690085,156747.57590861034,156883.9662532766,TASK1
2026-05-11T11:18:44.390+00:00,783,53036,156762.9315570511,156992.7968970295,156576.58506352722,156631.57035488728,156990.0476324615,156963.6278705153,156777.3484322248,156913.4705559576,TASK1
2026-05-11T11:18:44.390+00:00,783,53037,156803.96935987106,157033.83469984945,156617.3546454137,156672.33993677376,157031.3536562149,157004.66567333526,156818.11801411127,156954.50835877756,TASK1
2026-05-11T11:18:44.390+00:00,783,53038,156809.87022040726,157040.0037813191,156623.79194781685,156678.50901824344,157037.2545167511,157011.10297573838,156824.01887464747,156960.94566118068,TASK1
2026-05-11T11:18:44.390+00:00,783,53039,156769.70413562108,156999.83769653292,156583.62586303064,156638.07471252378,156997.08843196492,156970.40044908528,156783.58456892782,156920.51135546103,TASK1
2026-05-11T11:18:44.390+00:00,783,53040,156746.97241151004,156977.10597242188,156560.8941389196,156615.34298841274,156974.62492878732,156947.40050404076,156760.85284481678,156897.5114104165,TASK1
2026-05-11T11:18:44.390+00:00,783,53041,156779.8965310927,157010.36536817136,156592.94654046852,156648.60238416222,157007.21377220316,156980.86106549038,156793.77696439944,156930.70375093265,TASK1
2026-05-11T11:18:44.390+00:00,783,53042,156821.47077577957,157051.93961285823,156634.5207851554,156690.1766288491,157048.78801689003,157022.43531017724,156835.61943001978,156972.00977468607,TASK1
2026-05-11T11:18:44.390+00:00,783,53043,156826.03053164846,157056.49936872712,156639.08054102428,156694.73638471798,157053.07955182545,157026.72684511266,156840.17918588867,156976.30130962149,TASK1
2026-05-11T11:18:44.390+00:00,783,53044,156784.7915631284,157014.99217927363,156598.1097934377,156653.7656371314,157011.84058330543,156985.4878765926,156798.94021736862,156935.59878296836,TASK1
2026-05-11T11:18:44.390+00:00,783,53045,156761.7916180839,156992.26045516256,156575.1098483932,156630.7656920869,156988.8406382609,156962.4879315481,156775.9402723241,156912.59883792387,TASK1
2026-05-11T11:18:44.390+00:00,783,53046,156789.68659516412,157020.42365317626,156602.73660453994,156658.66066916712,157016.73561534114,156990.11468769485,156803.56702847086,156940.22559407062,TASK1
2026-05-11T11:18:44.390+00:00,783,53047,156828.04218864944,157058.77924666155,156641.09219802523,156697.0162626524,157055.3594297599,157028.73850211364,156842.19084288963,156978.8494084894,TASK1
2026-05-11T11:18:44.390+00:00,783,53048,156831.52906078447,157061.99789786313,156644.57907016028,156700.50313478746,157058.57808096145,157031.9571533152,156845.4094940912,156982.06805969094,TASK1
2026-05-11T11:18:44.390+00:00,783,53049,156789.7536503975,157020.49070840963,156602.80365977332,156658.7277244005,157016.80267057449,156990.18174292822,156803.63408370424,156940.29264930397,TASK1
2026-05-11T11:18:44.390+00:00,783,53050,156764.3397169518,156995.07677496393,156577.38972632762,156633.04557002132,156991.38873712881,156964.76780948255,156778.488371192,156914.8787158583,TASK1
2026-05-11T11:18:44.390+00:00,783,53051,156792.23469403203,157022.43531017724,156605.01648247437,156660.94054710155,157019.01549327557,156992.66278656275,156806.11512733877,156942.50547200505,TASK1
2026-05-11T11:18:44.736+00:00,784,53052,156831.12672938427,157061.32734552945,156643.9085178266,156699.56436152032,157057.9075286278,157031.554821915,156845.007162691,156981.3975073573,TASK1
2026-05-11T11:18:44.736+00:00,784,53053,156836.22292712008,157066.69176419874,156649.00471556242,156704.66055925612,157063.00372636362,157036.6510196508,156850.10336042682,156986.76192602655,TASK1
2026-05-11T11:18:44.736+00:00,784,53054,156794.98395860003,157025.18457474525,156607.76574704237,156663.15336980263,157021.4965369101,156995.1438301973,156808.86439190677,156944.98651563958,TASK1
2026-05-11T11:18:44.736+00:00,784,53055,156771.9840135555,157001.91640876725,156584.76580199788,156640.15342475811,156997.96014999866,156972.1438851528,156785.86444686228,156921.71834966162,TASK1
2026-05-11T11:18:44.736+00:00,784,53056,156801.48831623653,157031.68893238172,156614.27010467887,156669.92594837258,157027.73267361315,157001.91640876725,156815.36874954327,156951.49087327608,TASK1
2026-05-11T11:18:44.736+00:00,784,53057,156846.28121212497,157076.48182827016,156658.79477963384,156714.45062332758,157073.33023230196,157047.5139674561,156860.9663082321,156997.08843196492,TASK1
2026-05-11T11:18:44.736+00:00,784,53058,156848.42697959268,157078.89581667134,156661.20876803502,156716.86461172873,157075.47599976967,157049.6597349238,156863.1120756998,156999.23419943263,TASK1
2026-05-11T11:18:44.736+00:00,784,53059,156802.09181333682,157032.292429482,156614.87360177917,156670.79766640635,157028.6043916469,157002.51990586755,156815.97224664356,156952.09437037638,TASK1
2026-05-11T11:18:44.736+00:00,784,53060,156777.21432175807,157007.68315883673,156589.99611020042,156645.9201748276,157003.72690006814,156977.6424142888,156791.0947550648,156927.21687879763,TASK1
2026-05-11T11:18:44.736+00:00,784,53061,156806.98684537254,157037.4556824512,156619.50041288143,156675.42447750858,157033.23120274916,157007.14671696982,156820.86727867927,156956.9894024121,TASK1
2026-05-11T11:18:44.736+00:00,784,53062,156850.1704156602,157080.63925273885,156662.4157622356,156718.60804779624,157076.4147730368,157050.33028725744,156864.05084896693,157000.17297269974,TASK1
2026-05-11T11:18:44.736+00:00,784,53063,156856.0712761964,157086.54011327506,156668.31662277182,156724.50890833244,157082.04741263954,157056.49936872712,156869.95170950313,157006.07383323595,TASK1
2026-05-11T11:18:44.736+00:00,784,53064,156813.22298207556,157043.69181915422,156625.46832865098,156681.92883514508,157039.1991185187,157013.65107460628,156827.1034153823,156963.2255391151,TASK1
2026-05-11T11:18:44.736+00:00,784,53065,156788.3454904968,157018.81432757547,156600.8590580057,156657.05134356633,157014.32162693996,156988.77358302753,156801.95770287007,156938.34804753636,TASK1
2026-05-11T11:18:44.736+00:00,784,53066,156818.38623504475,157049.12329305688,156631.1680234871,156687.09208811427,157044.63059242137,157019.3507694424,156832.26666835148,156968.3887920843,TASK1
2026-05-11T11:18:44.736+00:00,784,53067,156861.83802626585,157092.57508427798,156674.61981470822,156730.54387933537,157088.35060457594,157062.80256066352,156875.98668050606,157011.84058330543,TASK1
2026-05-11T11:18:44.736+00:00,784,53068,156869.75054380303,157100.2193808817,156682.93466364557,156738.12112070573,157096.93367444677,157070.58096773396,156884.10036374335,157020.49070840963,TASK1
2026-05-11T11:18:44.736+00:00,784,53069,156825.82936594836,157056.29820302702,156639.0134857909,156694.4681637845,157052.74427565862,157026.3915689458,156839.64274402172,156976.56953055493,TASK1
2026-05-11T11:18:44.736+00:00,784,53070,156798.8061069019,157029.27494398056,156612.2584476779,156667.71312567152,157025.72101661217,156999.63653083282,156812.35126404182,156949.54627150847,TASK1
2026-05-11T11:18:44.736+00:00,784,53071,156828.8468514498,157059.58390946194,156642.29919222582,156697.75387021946,157056.02998209355,157029.67727538076,156842.6602295232,156979.5870160564,TASK1
2026-05-11T11:18:44.736+00:00,784,53072,156890.80588707994,157121.54294509208,156704.25822785593,156759.4446849161,157120.67122705834,157094.3185203455,156907.30147448796,157043.9600400877,TASK1
2026-05-11T11:18:44.736+00:00,784,53073,156897.77963135,157128.24846842868,156710.69553025908,156766.1502082527,157126.840308528,157100.48760181517,156913.20233502414,157050.12912155734,TASK1
2026-05-11T11:18:44.736+00:00,784,53074,156832.93722068515,157063.67427869726,156645.85311959422,156701.30779758786,157060.1203513289,157033.76764461608,156846.48237782507,156983.40916435828,TASK1
2026-05-11T11:18:44.736+00:00,784,53075,156805.10929883827,157035.8463568504,156618.02519774737,156673.47987574097,157031.7559876151,157005.40328090228,156818.6544559782,156955.31302157795,TASK1
2026-05-11T11:18:44.736+00:00,784,53076,156835.68648525316,157066.15532233182,156648.8706050957,156704.05706215586,157062.33317402995,157035.98046731716,156849.49986332652,156986.15842892628,TASK1
2026-05-11T11:18:44.736+00:00,784,53077,156881.28404394197,157112.02110195413,156694.4681637845,156749.65462084467,157107.9307327188,157082.1144678729,156894.82920108188,157031.7559876151,TASK1
2026-05-11T11:18:44.736+00:00,784,53078,156887.45312541164,157118.1901834238,156700.63724525418,156756.0919232478,157113.83159325502,157088.0153284091,156900.99828255156,157037.6568481513,TASK1
2026-05-11T11:18:44.736+00:00,784,53079,156842.72728475658,157073.4643427687,156655.91140459912,156711.36608259272,157069.37397353337,157043.28948775402,156856.54066282994,156993.1992284297,TASK1
2026-05-11T11:18:44.736+00:00,784,53080,156815.16758384317,157045.9046418553,156628.3517036857,156683.80638167934,157042.08249355346,157015.72978684065,156828.98096191656,156965.90774844977,TASK1
2026-05-11T11:18:44.736+00:00,784,53081,156847.08587492534,157078.35937480442,156660.53821570135,156715.7246727615,157074.26900556908,157047.64807792281,156861.1674739322,156997.82603953194,TASK1
2026-05-11T11:18:44.736+00:00,784,53082,156894.0245382815,157125.56625909405,156707.74509999098,156762.66333611766,157121.20766892526,157094.85496221244,156908.10613728833,157045.03292382153,TASK1
2026-05-11T11:18:44.736+00:00,784,53083,156899.38895695077,157130.93067776333,156713.10951866023,156768.02775478692,157126.840308528,157100.48760181517,156913.4705559576,157050.39734249082,TASK1
2026-05-11T11:18:44.736+00:00,784,53084,156852.517348828,157084.32729057397,156666.23791053746,156721.42436759762,157079.96870040518,157053.6159936924,156866.59894783483,157003.52573436804,TASK1
2026-05-11T11:18:44.736+00:00,784,53085,156826.03053164846,157057.572252461,156639.48287242447,156694.6693294846,157053.2136622922,157026.86095557938,156839.57568878838,156976.77069625503,TASK1
2026-05-11T11:18:44.736+00:00,784,53086,156860.3628111318,157091.90453194434,156673.81515190782,156728.7333880345,157087.54594177555,157061.19323506273,156873.90796827173,157011.10297573838,TASK1
2026-05-11T11:18:44.736+00:00,784,53087,156906.2285907541,157138.0385325001,156720.21737339703,156774.86738859027,157133.94816326478,157107.595456552,156920.31018976093,157057.23697629414,TASK1
2026-05-11T11:18:44.736+00:00,784,53088,156910.78834662298,157142.598288369,156724.77712926592,156779.42714445913,157138.2396982002,157112.15521242085,156924.3335037629,157061.79673216303,TASK1
2026-05-11T11:18:44.736+00:00,784,53089,156860.42986636516,157092.5080290446,156674.68686994156,156729.3368851348,157087.88121794237,157062.0649530965,156874.51146537202,157011.70647283868,TASK1
2026-05-11T11:18:44.736+00:00,784,53090,156831.52906078447,157063.87544439736,156645.78606436087,156700.43607955409,157058.98041236165,157033.16414751578,156845.87888072478,156982.80566725798,TASK1
2026-05-11T11:18:44.736+00:00,784,53091,156863.44735186663,157095.79373547956,156677.70435544304,156732.35437063625,157090.89870344385,157065.08243859795,156877.52895087347,157014.99217927363,TASK1
2026-05-11T11:18:44.736+00:00,784,53092,156909.84957335587,157142.1959569688,156724.37479786572,156778.7565921255,157137.30092493308,157111.21643915374,156924.19939329615,157061.6626216963,TASK1
2026-05-11T11:18:44.736+00:00,784,53093,156916.286875759,157148.36503843847,156730.54387933537,156785.1938945286,157143.47000640276,157117.38552062341,156930.36847476583,157067.5634822325,TASK1
2026-05-11T11:18:44.736+00:00,784,53094,156869.68348856966,157101.49343031566,156683.6722712126,156738.59050733928,157096.8666192134,157070.78213343406,156883.49686664305,157020.69187410973,TASK1
2026-05-11T11:18:44.736+00:00,784,53095,156842.39200858973,157073.93372940226,156656.3807912327,156711.0308064259,157069.30691830002,157043.22243252068,156855.93716572964,156993.13217319633,TASK1
2026-05-11T11:18:44.736+00:00,784,53096,156878.06539274042,157109.60711355295,156692.3223963168,156746.97241151004,157104.9803024507,157078.89581667134,156891.6105498803,157028.805557347,TASK1
2026-05-11T11:18:44.736+00:00,784,53097,156931.9778003666,157163.51952117914,156746.23480394302,156800.88481913623,157159.16093101038,157132.80822429757,156945.52295750653,157082.71796497318,TASK1
2026-05-11T11:18:44.736+00:00,784,53098,156939.21976557013,157170.7614863827,156753.20854821306,156807.85856340628,157166.67111714734,157140.05018950108,156952.76492271005,157089.9599301767,TASK1
2026-05-11T11:18:44.736+00:00,784,53099,156893.08576501437,157123.6887125598,156706.3369400903,156761.45634191707,157120.00067472467,157093.58091277847,156906.9661983211,157044.02709532107,TASK1
2026-05-11T11:18:44.736+00:00,784,53100,156866.33072690136,157096.93367444677,156679.58190197728,156734.70130380406,157093.24563661165,157066.55765373202,156880.21116020813,157017.00383627458,TASK1
2026-05-11T11:18:44.736+00:00,784,53101,156897.1761342497,157128.04730272858,156710.69553025908,156765.81493208586,157124.62748582693,157097.93950294727,156911.3247884899,157048.1174645564,TASK1
2026-05-11T11:18:44.736+00:00,784,53102,156959.67161174674,157190.27455929216,156772.92278682263,156828.04218864944,157189.80517265858,157163.6536316459,156976.77069625503,157113.56337232154,TASK1
2026-05-11T11:18:44.736+00:00,784,53103,156966.91357695026,157197.24830356223,156780.16475202618,156835.28415385296,157196.77891692866,157170.3591549825,156983.7444405251,157120.26889565814,TASK1
2026-05-11T11:18:44.736+00:00,784,53104,156895.09742201536,157125.43214862733,156708.0803761578,156763.46799891806,157122.01233172565,157095.59256977946,156908.9778553221,157045.5023104551,TASK1
2026-05-11T11:18:44.736+00:00,784,53105,156866.19661643464,157096.79956398005,156679.17957057708,156734.56719333734,157093.1115261449,157066.69176419874,156880.07704974138,157016.86972580786,TASK1
2026-05-11T11:18:44.736+00:00,784,53106,156895.43269818218,157126.30386666107,156708.6838732581,156763.80327508488,157122.61582882595,157096.19606687975,156909.84957335587,157046.64224942232,TASK1
2026-05-11T11:18:44.736+00:00,784,53107,156937.00694286905,157167.87811134793,156750.25811794496,156805.37751977175,157164.19007351281,157137.77031156665,156951.42381804273,157088.2164941092,TASK1
2026-05-11T11:18:44.736+00:00,784,53108,156941.29847780446,157171.9014253499,156754.2814319469,156809.40083377372,157168.48160844823,157141.7936255686,156955.71535297815,157092.23980811116,TASK1
2026-05-11T11:18:44.736+00:00,784,53109,156898.18196275018,157129.05313122907,156711.4331378261,156766.55253965288,157125.36509339395,157098.67711051428,156912.3306169904,157049.12329305688,TASK1
2026-05-11T11:18:44.736+00:00,784,53110,156875.98668050606,157107.12606991842,156689.23785558197,156744.62547834223,157103.1698111498,157076.48182827016,156890.13533474627,157026.92801081276,TASK1
2026-05-11T11:18:44.736+00:00,784,53111,156908.1731925217,157139.31258193406,156721.15614666414,156776.5437694244,157135.35632316547,157108.66834028583,156922.32184676192,157059.1145228284,TASK1
2026-05-11T11:18:44.736+00:00,784,53112,156951.62498374283,157182.49615222172,156764.3397169518,156819.99556064553,157178.53989345313,157151.8519105735,156965.77363798302,157102.29809311606,TASK1
2026-05-11T11:18:44.736+00:00,784,53113,156957.52584427904,157188.39701275792,156770.77701935492,156825.8964211817,157184.44075398933,157158.02099204314,156971.67449851922,157108.46717458573,TASK1
2026-05-11T11:18:44.736+00:00,784,53114,156914.94577109168,157145.01227677017,156727.92872523412,156783.0481270609,157141.32423893505,157114.90447698886,156928.8262043984,157065.6188804649,TASK1
2026-05-11T11:18:44.736+00:00,784,53115,156890.60472137984,157121.20766892526,156703.58767552229,156758.70707734907,157116.98318922322,157091.09986914395,156904.75337562006,157041.5460516865,TASK1
2026-05-11T11:18:44.736+00:00,784,53116,156920.3772449943,157151.2484134732,156733.62842007022,156788.747821897,157147.2921547046,157121.40883462536,156934.79412016796,157071.05035436753,TASK1
2026-05-11T11:18:44.736+00:00,784,53117,156961.14682688078,157191.74977442622,156774.12978102322,156829.51740378348,157187.79351565763,157162.17841651183,156975.56370205447,157111.81993625403,TASK1
2026-05-11T11:18:44.736+00:00,784,53118,156964.36547808236,157194.96842562777,156777.3484322248,156832.73605498506,157190.74394592573,157165.12884677993,156978.51413232257,157114.77036652213,TASK1
2026-05-11T11:18:44.736+00:00,784,53119,156919.10319556034,157149.70614310578,156732.0861497028,156787.47377246304,157145.4816634037,157119.86656425794,156933.25184980055,157069.50808400012,TASK1
2026-05-11T11:18:44.736+00:00,784,53120,156895.70091911565,157126.03564572762,156708.482707558,156764.07149601835,157122.41466312585,157096.061956413,156909.44724195567,157046.1058075554,TASK1
2026-05-11T11:18:44.736+00:00,784,53121,156928.42387299822,157158.75859961018,156741.20566144056,156796.79444990092,157155.1376170084,157128.78491029562,156942.17019583823,157078.56054050452,TASK1
2026-05-11T11:18:44.736+00:00,784,53122,156970.26633861856,157200.6010652305,156783.31634799438,156838.63691552126,157197.24830356223,157170.62737591594,156984.28088239202,157120.67122705834,TASK1
2026-05-11T11:18:44.736+00:00,784,53123,156973.75321075358,157204.08793736555,156786.53499919592,156842.39200858973,157200.46695476377,157174.38246898443,156988.304196394,157124.42632012683,TASK1
2026-05-11T11:18:44.736+00:00,784,53124,156930.6366956993,157161.2396432447,156743.41848414164,156799.27549353545,157157.08221877602,157130.99773299668,156945.18768133968,157081.04158413905,TASK1
2026-05-11T11:18:44.736+00:00,784,53125,156907.90497158823,157138.77614006714,156721.22320189752,156776.5437694244,157134.8869365319,157108.80245075256,156922.45595722864,157058.309860028,TASK1
2026-05-11T11:18:44.736+00:00,784,53126,156939.55504173695,157170.1579892824,156752.87327204624,156808.46206050657,157166.53700668062,157140.45252090128,156954.10602737736,157090.22815111018,TASK1
2026-05-11T11:18:45.044+00:00,785,53127,156981.3975073573,157211.4640130358,156794.17929579964,156849.76808426,157207.84303043404,157181.75854465467,156995.1438301973,157131.53417486363,TASK1
2026-05-11T11:18:45.044+00:00,785,53128,156983.27505389153,157213.34155957005,156796.0568423339,156851.64563079423,157209.98879790175,157183.63609118894,156997.55781859846,157133.67994233134,TASK1
2026-05-11T11:18:45.044+00:00,785,53129,156940.42675977072,157170.7614863827,156753.20854821306,156808.79733667342,157167.14050378092,157140.7877970681,156954.70952447766,157090.563427277,TASK1
2026-05-11T11:18:45.044+00:00,785,53130,156918.76791939352,157149.37086693896,156731.81792876933,156787.4067172297,157145.4816634037,157119.12895669093,156932.782463167,157068.63636596635,TASK1
2026-05-11T11:18:45.044+00:00,785,53131,156949.61332674185,157180.48449522073,156762.66333611766,156818.252124578,157176.59529168552,157150.2425849727,156963.89609144878,157099.74999424815,TASK1
2026-05-11T11:18:45.044+00:00,785,53132,156994.9426644972,157225.8138329761,156808.26089480647,156863.84968326683,157223.2657341082,157196.64480646193,157010.29831293802,157146.15221573738,TASK1
2026-05-11T11:18:45.044+00:00,785,53133,156995.7473272976,157226.6184957765,156809.06555760687,156864.38612513375,157223.53395504167,157197.18124832885,157010.83475480494,157146.6886576043,TASK1
2026-05-11T11:18:45.044+00:00,785,53134,156951.28970757598,157182.42909698834,156764.60793788527,156820.19672634563,157178.27167251965,157152.1871867403,156966.10891414987,157101.9628169492,TASK1
2026-05-11T11:18:45.044+00:00,785,53135,156930.97197186612,157161.843140345,156744.29020217538,156800.14721156922,157157.68571587632,157131.60123009697,156945.79117843998,157081.37686030587,TASK1
2026-05-11T11:18:45.044+00:00,785,53136,156959.40339081327,157190.54278022563,156772.989842056,156828.57863051636,157186.38535575694,157160.03264904412,156974.22259738712,157110.07650018652,TASK1
2026-05-11T11:18:45.044+00:00,785,53137,156996.68610056472,157227.5572690436,156810.00433087398,156865.59311933434,157223.6680655084,157197.04713786213,157011.50530713858,157147.35920993797,TASK1
2026-05-11T11:18:45.044+00:00,785,53138,156998.56364709896,157229.43481557784,156811.88187740825,156867.4706658686,157226.08205390957,157199.19290532984,157013.38285367284,157149.2367564722,TASK1
2026-05-11T11:18:45.044+00:00,785,53139,156958.39756231278,157189.26873079166,156771.9840135555,156827.57280201587,157185.91596912337,157159.2950414771,156973.4849898201,157109.07067168603,TASK1
2026-05-11T11:18:45.044+00:00,785,53140,156938.34804753636,157169.21921601525,156751.9344987791,156807.52328723946,157165.5982334135,157138.97730576724,156953.70369597716,157089.02115690958,TASK1
2026-05-11T11:18:45.044+00:00,785,53141,156966.7794664835,157197.6506349624,156780.36591772627,156835.68648525316,157194.02965236065,157167.4087247144,156981.86689399084,157117.18435492332,TASK1
2026-05-11T11:18:45.044+00:00,785,53142,157003.25751343457,157234.12868191348,156816.84396467733,156872.16453220422,157230.23947837824,157203.88677166545,157018.34494094193,157153.3941809409,TASK1
2026-05-11T11:18:45.044+00:00,785,53143,157005.67150183575,157236.54267031464,156818.98973214504,156874.57852060537,157232.9216877129,157206.03253913316,157020.75892934308,157155.80816934208,TASK1
2026-05-11T11:18:45.044+00:00,785,53144,156968.45584731767,157199.32701579656,156781.77407762693,156837.3628660873,157195.7060331948,157168.81688461505,156983.543274825,157118.86073575745,TASK1
2026-05-11T11:18:45.044+00:00,785,53145,156951.35676280936,157182.09382082152,156764.60793788527,156820.19672634563,157178.47283821975,157152.0530762736,156965.8406932164,157102.29809311606,TASK1
2026-05-11T11:18:45.044+00:00,785,53146,156980.86106549038,157211.32990256906,156794.11224056626,156849.43280809314,157207.97714090077,157181.82559988805,156995.3449958974,157131.53417486363,TASK1
2026-05-11T11:18:45.044+00:00,785,53147,157034.5052521831,157264.97408926178,156847.756427259,156903.0769947859,157264.5717578616,157238.4202168489,157051.67139192478,157188.39701275792,TASK1
2026-05-11T11:18:45.044+00:00,785,53148,157034.5052521831,157264.7729235617,156847.5552615589,156903.0769947859,157263.83415029457,157237.68260928185,157050.93378435774,157187.92762612435,TASK1
2026-05-11T11:18:45.044+00:00,785,53149,156977.17302765523,157207.44069903385,156790.49125796452,156845.74477025802,157204.356158299,157178.2046172863,156991.4557923622,157128.44963412877,TASK1
2026-05-11T11:18:45.044+00:00,785,53150,156957.9281756792,157188.46406799127,156771.51462692197,156826.499918282,157185.37952725645,157158.6915443768,156972.4791613196,157109.20478215275,TASK1
2026-05-11T11:18:45.044+00:00,785,53151,156985.2867108925,157215.82260320458,156798.6049412018,156854.1266744288,157212.73806246975,157186.05007959012,156999.56947559945,157136.2950964326,TASK1
2026-05-11T11:18:45.044+00:00,785,53152,157018.00966477508,157249.08199895406,156831.32789508437,156886.84962831135,157245.46101635232,157219.3094753396,157032.5606504155,157169.28627124862,TASK1
2026-05-11T11:18:45.044+00:00,785,53153,157015.66273160727,157247.00328671973,156829.24918285,156884.770916077,157243.1140831845,157217.23076310527,157030.48193818115,157166.93933808082,TASK1
2026-05-11T11:18:45.044+00:00,785,53154,156978.9835189561,157210.0558531351,156792.56997019885,156848.09170342583,157206.43487053335,157180.28332952064,156993.53450459652,157130.26012542966,TASK1
2026-05-11T11:18:45.044+00:00,785,53155,156962.42087631475,157193.76143142718,156776.00732755748,156831.52906078447,157189.87222789196,157163.72068687924,156976.97186195513,157113.42926185482,TASK1
2026-05-11T11:18:45.044+00:00,785,53156,156987.63364406032,157218.97419917278,156800.9518743696,156856.4736075966,157215.08499563756,157188.93345462484,157002.18462970073,157138.91025053387,TASK1
2026-05-11T11:18:45.044+00:00,785,53157,157019.28371420904,157250.62426932147,156832.33372358486,156887.85545681184,157246.4668448528,157220.58352477357,157033.56647891598,157170.5603206826,TASK1
2026-05-11T11:18:45.044+00:00,785,53158,157020.35659794288,157251.96537398882,156833.67482825217,156888.92834054568,157247.53972858665,157221.6564085074,157034.9075835833,157171.9014253499,TASK1
2026-05-11T11:18:45.044+00:00,785,53159,156992.52867609603,157224.13745214193,156805.84690640532,156860.83219776535,157219.7118067398,157193.56026572708,157006.81144080297,157144.07350350305,TASK1
2026-05-11T11:18:45.044+00:00,785,53160,156981.86689399084,157213.47567003677,156795.18512430013,156850.43863659364,157209.31824556808,157182.89848362192,156996.1496586978,157133.41172139786,TASK1
2026-05-11T11:18:45.044+00:00,785,53161,157008.68898733723,157240.02954244966,156821.73899671304,156876.99250900655,157236.14033891444,157209.72057696828,157022.7035311107,157159.96559381078,TASK1
2026-05-11T11:18:45.044+00:00,785,53162,157036.31574348398,157267.9245195299,156849.63397379324,156904.88748608678,157264.03531599467,157237.6155540485,157050.59850819092,157187.59234995753,TASK1
2026-05-11T11:18:45.044+00:00,785,53163,157033.7005893827,157265.30936542863,156847.018819692,156902.2723319855,157261.4201618934,157235.2686208807,157048.2515750231,157184.97719585625,TASK1
2026-05-11T11:18:45.044+00:00,785,53164,156998.63070233233,157230.23947837824,156811.94893264162,156867.20244493513,157226.08205390957,157200.19873383033,157013.18168797274,157149.90730880588,TASK1
2026-05-11T11:18:45.044+00:00,785,53165,156983.40916435828,157215.01794040418,156796.4591737341,156851.7126860276,157210.8605159355,157184.70897492277,156997.96014999866,157134.6857708318,TASK1
2026-05-11T11:18:45.044+00:00,785,53166,157008.08549023693,157240.23070814976,156821.4037205462,156876.65723283973,157236.0732836811,157209.6535217349,157022.9046968108,157159.63031764393,TASK1
2026-05-11T11:18:45.044+00:00,785,53167,157038.12623478487,157270.2714526977,156851.7126860276,156906.4297564542,157266.38224916247,157239.9624872163,157053.2136622922,157189.67106219186,TASK1
2026-05-11T11:18:45.044+00:00,785,53168,157039.46733945218,157271.34433643156,156853.05379069492,156907.7708611215,157267.7233538298,157241.30359188362,157054.28654602604,157191.01216685917,TASK1
2026-05-11T11:18:45.044+00:00,785,53169,157009.22542920415,157241.10242618353,156822.81188044688,156877.79717180695,157237.2132226483,157210.79346070212,157024.044635778,157160.77025661114,TASK1
2026-05-11T11:18:45.044+00:00,785,53170,156997.22254243164,157229.09953941102,156810.54077274093,156865.52606410097,157224.94211494233,157198.52235299617,157011.77352807205,157148.4991489052,TASK1
2026-05-11T11:18:45.044+00:00,785,53171,157022.7035311107,157254.58052809007,156836.02176141998,156891.00705278004,157250.42310362138,157224.0033416752,157036.98629581762,157173.7119166508,TASK1
2026-05-11T11:18:45.044+00:00,785,53172,157055.29237452653,157285.76121160522,156868.20827343562,156923.79706189595,157282.14022900347,157255.85457752403,157069.17280783327,157205.83137343306,TASK1
2026-05-11T11:18:45.044+00:00,785,53173,157056.09703732692,157286.5658744056,156869.01293623602,156924.3335037629,157282.94489180387,157256.65924032443,157069.97747063366,157206.63603623345,TASK1
2026-05-11T11:18:45.044+00:00,785,53174,157025.58690614544,157256.05574322413,156838.5028050545,156893.8233725814,157252.43476062236,157226.14910914292,157039.73556038563,157176.12590505194,TASK1
2026-05-11T11:18:45.044+00:00,785,53175,157010.90181003828,157241.10242618353,156823.81770894738,156879.13827647426,157237.48144358175,157211.1957921023,157024.78224334505,157161.17258801134,TASK1
2026-05-11T11:18:45.044+00:00,785,53176,157033.7005893827,157263.63298459447,156846.6164882918,156901.93705581868,157260.28022292617,157233.99457144673,157047.312801756,157183.97136735576,TASK1
2026-05-11T11:18:45.044+00:00,785,53177,157066.69176419874,157296.89238034398,156879.60766310783,156934.92823063472,157294.34428147608,157268.05862999664,157081.37686030587,157218.03542590566,TASK1
2026-05-11T11:18:45.044+00:00,785,53178,157067.7646479326,157298.2334850113,156880.68054684167,156936.26933530203,157295.14894427647,157269.13151373048,157082.44974403974,157218.84008870603,TASK1
2026-05-11T11:18:45.044+00:00,785,53179,157034.57230741647,157265.04114449516,156847.756427259,156903.34521571937,157261.4201618934,157235.40273134742,157048.72096165668,157185.37952725645,TASK1
2026-05-11T11:18:45.044+00:00,785,53180,157019.88721130934,157250.62426932147,156833.33955208535,156888.92834054568,157247.2715076532,157220.98585617376,157034.304086483,157170.6944311493,TASK1
2026-05-11T11:18:45.044+00:00,785,53181,157044.02709532107,157275.03237426668,156857.2112151636,156913.0682245574,157271.14317073146,157245.12574018547,157058.17574956125,157194.83431516105,TASK1
2026-05-11T11:18:45.044+00:00,785,53182,157072.19029333474,157303.19557228038,156885.37441317728,156941.23142257112,157299.0381478117,157273.28893819917,157086.60716850843,157223.2657341082,TASK1
2026-05-11T11:18:45.044+00:00,785,53183,157069.03869736654,157299.7757553787,156881.95459627564,156938.07982660292,157295.8865518435,157270.13734223097,157083.45557254023,157220.11413814,TASK1
2026-05-11T11:18:45.044+00:00,785,53184,157036.38279871736,157266.85163579605,156849.03047669298,156905.4239279537,157263.23065319427,157237.2132226483,157050.79967389102,157187.45823949078,TASK1
2026-05-11T11:18:45.044+00:00,785,53185,157023.30702821098,157253.77586528967,156836.22292712008,156892.6163783808,157250.42310362138,157224.4056730754,157037.4556824512,157174.38246898443,TASK1
2026-05-11T11:18:45.044+00:00,785,53186,157049.8609006239,157280.3297377026,156862.77679953296,156919.17025079372,157276.9769760343,157250.95954548832,157064.0095548641,157200.66812046387,TASK1
2026-05-11T11:18:45.044+00:00,785,53187,157080.43808703875,157311.17514505092,156893.35398594785,156949.74743720857,157307.82238338262,157281.80495283665,157094.58674127897,157231.24530687873,TASK1
2026-05-11T11:18:45.044+00:00,785,53188,157082.04741263954,157313.05269158515,156894.9633115486,156951.35676280936,157309.4317089834,157283.4142784374,157096.19606687975,157233.122853413,TASK1
2026-05-11T11:18:45.044+00:00,785,53189,157052.34194425843,157283.34722320407,156865.25784316752,156921.65129442824,157279.7262406023,157253.70881005633,157066.7588194321,157203.41738503188,TASK1
2026-05-11T11:18:45.044+00:00,785,53190,157039.802615619,157270.80789456464,156852.98673546154,156909.3801867223,157267.45513289634,157241.43770235035,157054.48771172613,157190.87805639245,TASK1
2026-05-11T11:18:45.044+00:00,785,53191,157064.47894149765,157295.4842204433,156877.66306134022,156934.32473353442,157292.131458775,157266.11402822903,157079.1640376048,157215.28616133766,TASK1
2026-05-11T11:18:45.044+00:00,785,53192,157091.03281391057,157322.03809285618,156904.2169337531,156960.61038501386,157318.95355212135,157292.6679006419,157105.71791001773,157242.10825468402,TASK1
2026-05-11T11:18:45.044+00:00,785,53193,157088.14943887584,157319.15471782145,156901.33355871838,156957.99523091258,157315.80195615315,157289.7845256072,157103.10275591642,157239.2248796493,TASK1
2026-05-11T11:18:45.044+00:00,785,53194,157056.5664239605,157287.5717029061,156870.0187647365,156926.41221599723,157284.2189412378,157258.4697316253,157071.78796193455,157207.64186473395,TASK1
2026-05-11T11:18:45.044+00:00,785,53195,157043.22243252068,157274.49593239976,156857.2112151636,156913.3364454909,157271.41139166494,157245.39396111894,157058.7121914282,157194.56609422757,TASK1
2026-05-11T11:18:45.044+00:00,785,53196,157067.09409559894,157298.6358164115,156880.81465730842,156936.93988763567,157295.01483380972,157269.2656241972,157082.315633573,157218.43775730586,TASK1
2026-05-11T11:18:45.044+00:00,785,53197,157092.84330521146,157324.11680509054,156906.56386692091,156962.6890972482,157320.76404342224,157295.2830547432,157108.333064119,157244.18696691835,TASK1
2026-05-11T11:18:45.044+00:00,785,53198,157091.30103484404,157322.57453472313,156905.55803842042,156961.6832687477,157319.75821492175,157294.00900530923,157107.05901468504,157242.64469655094,TASK1
2026-05-11T11:18:45.044+00:00,785,53199,157062.40022926332,157293.6737291424,156876.38901190626,156932.782463167,157290.85740934103,157264.83997879506,157078.15820910432,157214.0121119037,TASK1
2026-05-11T11:18:45.044+00:00,785,53200,157052.0066680916,157283.2801679707,156865.72722980106,156922.3889019953,157280.4638481693,157254.71463855682,157067.7646479326,157203.61855073198,TASK1
2026-05-11T11:18:45.044+00:00,785,53201,157077.21943583718,157308.22471478282,156890.93999754667,156947.3334488074,157305.6766159149,157279.9274063024,157092.97741567818,157228.83131847758,TASK1
2026-05-11T11:18:45.429+00:00,786,53202,157105.11441291744,157336.11969186304,156918.8349746269,156975.4966468211,157333.8398139286,157307.82238338262,157120.87239275844,157256.72629555778,TASK1
2026-05-11T11:18:45.429+00:00,786,53203,157108.26600888564,157338.5336802642,156921.3830734948,156977.0389171885,157335.382084296,157309.16348804993,157122.74993929267,157259.14028395896,TASK1
2026-05-11T11:18:45.429+00:00,786,53204,157080.70630797223,157310.97397935082,156893.8233725814,156949.47921627513,157308.0906043161,157281.60378713656,157095.19023837926,157231.58058304558,TASK1
2026-05-11T11:18:45.429+00:00,786,53205,157069.77630493356,157300.31219724563,156883.16159047623,156938.54921323646,157297.4288222109,157270.6737840979,157083.99201440715,157220.9188009404,TASK1
2026-05-11T11:18:45.429+00:00,786,53206,157091.7704214776,157322.57453472313,156905.15570702023,156960.54332978048,157319.15471782145,157292.9361215754,157105.9861309512,157242.9129174844,TASK1
2026-05-11T11:18:45.429+00:00,786,53207,157124.76159629365,157355.56570953917,156938.14688183626,156993.80272553,157353.75521823828,157327.53662199219,157140.586631368,157277.5134179012,TASK1
2026-05-11T11:18:45.429+00:00,786,53208,157123.48754685972,157354.02343917172,156936.60461146885,156992.52867609603,157352.21294787087,157325.99435162477,157139.31258193406,157275.9711475338,TASK1
2026-05-11T11:18:45.429+00:00,786,53209,157085.4672295412,157316.00312185325,156898.58429415038,156953.97191691064,157312.5833049516,157286.3647087055,157099.95115994825,157236.609725548,TASK1
2026-05-11T11:18:45.429+00:00,786,53210,157073.4643427687,157304.00023508075,156886.84962831135,156941.70080920466,157300.5804181791,157274.361821933,157088.2164941092,157224.87505970898,TASK1
2026-05-11T11:18:45.429+00:00,786,53211,157095.99490117966,157326.79901442517,156909.3801867223,156964.49958854908,157323.37919752352,157297.16060127743,157110.74705252016,157247.40561811993,TASK1
2026-05-11T11:18:45.429+00:00,786,53212,157121.47588985873,157352.5482240377,156934.86117540134,156990.51701909504,157349.128407136,157322.64158995647,157136.22804119924,157272.6183858655,TASK1
2026-05-11T11:18:45.429+00:00,786,53213,157121.47588985873,157352.3470583376,156934.66000970124,156990.31585339495,157348.92724143591,157322.17220332293,157136.02687549914,157272.4172201654,TASK1
2026-05-11T11:18:45.429+00:00,786,53214,157093.9161889453,157325.05557835766,156907.10030878786,156962.4879315481,157321.635761456,157294.61250240952,157108.46717458573,157245.12574018547,TASK1
2026-05-11T11:18:45.429+00:00,786,53215,157083.25440684013,157314.12557531902,156896.43852668267,156951.82614944293,157311.24220028426,157284.2189412378,157097.8053924805,157234.4639580803,TASK1
2026-05-11T11:18:45.429+00:00,786,53216,157107.3942908519,157337.99723839728,156920.5784106944,156975.96603345466,157335.382084296,157308.35882524954,157122.21349742575,157258.60384209204,TASK1
2026-05-11T11:18:45.429+00:00,786,53217,157134.4846051317,157365.0875526771,156947.66872497424,157003.05634773447,157362.47239857583,157335.44913952937,157149.0355907721,157285.69415637187,TASK1
2026-05-11T11:18:45.429+00:00,786,53218,157133.74699756468,157364.3499451101,156947.19933834067,157002.58696110093,157362.0030119423,157334.9797528958,157148.56620413857,157285.2247697383,TASK1
2026-05-11T11:18:45.429+00:00,786,53219,157105.91907571783,157336.25380232977,156919.10319556034,156974.4908183206,157334.17509009544,157306.61538918203,157120.47006135824,157257.39684789145,TASK1
2026-05-11T11:18:45.429+00:00,786,53220,157094.45263081224,157324.78735742418,156907.63675065478,156963.024373415,157322.17220332293,157294.880723343,157109.00361645265,157245.93040298586,TASK1
2026-05-11T11:18:45.429+00:00,786,53221,157118.86073575745,157348.92724143591,156931.77663466652,156987.16425742675,157346.31208733466,157319.28882828818,157132.87527953094,157270.0702869976,TASK1
2026-05-11T11:18:45.429+00:00,786,53222,157146.21927097076,157376.28577664922,156959.40339081327,157014.52279264005,157373.93884348142,157346.64736350148,157160.5020356777,157297.16060127743,TASK1
2026-05-11T11:18:45.429+00:00,786,53223,157143.60411686948,157374.2070644149,156957.05645764546,157011.90763853877,157371.5919103136,157344.30043033368,157158.1551025099,157294.81366810962,TASK1
2026-05-11T11:18:45.429+00:00,786,53224,157116.37969212292,157346.84852920158,156929.6308671988,156984.88437949232,157343.4287122999,157317.27717128722,157130.46129112976,157267.18691196287,TASK1
2026-05-11T11:18:45.429+00:00,786,53225,157105.44968908426,157335.91852616295,156918.70086416014,156973.95437645368,157332.49870926127,157306.34716824855,157119.53128809112,157256.25690892423,TASK1
2026-05-11T11:18:45.429+00:00,786,53226,157127.17558469484,157358.18086364042,156940.15853883725,156995.68027206423,157354.22460487182,157327.80484292566,157141.52540463515,157277.98280453478,TASK1
2026-05-11T11:18:45.429+00:00,786,53227,157151.31546870657,157382.0525267187,156964.29842284898,157019.5519351425,157378.0962679501,157351.9447269374,157165.3970677134,157302.12268854651,TASK1
2026-05-11T11:18:45.429+00:00,786,53228,157150.846082073,157381.8513610186,156964.09725714888,157019.5519351425,157377.89510225,157351.47534030382,157165.1959020133,157301.92152284642,TASK1
2026-05-11T11:18:45.429+00:00,786,53229,157123.82282302654,157354.55988103867,156936.80577716895,156992.26045516256,157350.60362227008,157324.45208125736,157137.90442203337,157274.89826379996,TASK1
2026-05-11T11:18:45.429+00:00,786,53230,157114.50214558866,157345.2392036008,156927.75332066455,156982.9397777247,157341.2829448322,157315.1314038195,157128.31552366205,157265.57758636208,TASK1
2026-05-11T11:18:45.429+00:00,786,53231,157138.6420296004,157369.37908761253,156951.35676280936,157006.81144080297,157365.42282884393,157339.27128783124,157152.72362860723,157289.7174703738,TASK1
2026-05-11T11:18:45.429+00:00,786,53232,157164.3912392129,157395.39651815852,156977.10597242188,157032.5606504155,157391.17203845645,157365.02049744374,157178.47283821975,157315.46667998633,TASK1
2026-05-11T11:18:45.429+00:00,786,53233,157163.6536316459,157394.65891059148,156976.6365857883,157032.0912637819,157390.43443088944,157364.28288987672,157177.73523065273,157314.72907241932,TASK1
2026-05-11T11:18:45.429+00:00,786,53234,157134.21638419825,157365.22166314384,156947.19933834067,157003.19045820122,157361.26540437527,157335.11386336255,157148.56620413857,157285.29182497167,TASK1
2026-05-11T11:18:45.429+00:00,786,53235,157121.94527649228,157352.6823345044,156934.92823063472,156990.91935049524,157348.9942966693,157323.11097659005,157136.2950964326,157273.0207172657,TASK1
2026-05-11T11:18:45.429+00:00,786,53236,157145.01227677017,157375.48111384883,156957.7270099791,157013.71812983966,157372.06129694715,157345.90975593447,157158.82565484353,157296.0877175436,TASK1
2026-05-11T11:18:45.429+00:00,786,53237,157181.49032372123,157411.6909398664,156994.2050569302,157049.92795585727,157410.68511136595,157384.26534941976,157197.44946926233,157334.17509009544,TASK1
2026-05-11T11:18:45.429+00:00,786,53238,157177.26584401916,157407.73468109785,156990.2487981616,157045.97169708868,157405.6559688635,157379.23620691733,157192.42032675986,157329.14594759297,TASK1
2026-05-11T11:18:45.429+00:00,786,53239,157139.2455267007,157370.2508056463,156952.49670177657,157008.21960070365,157366.83098874462,157340.41122679846,157153.595346641,157290.58918840758,TASK1
2026-05-11T11:18:45.429+00:00,786,53240,157129.65662832937,157360.93012820842,156943.17602433873,156998.8989232658,157357.51031130677,157331.09054936058,157143.7382273362,157281.2685109697,TASK1
2026-05-11T11:18:45.429+00:00,786,53241,157154.6011751415,157385.87467502055,156968.12057115085,157023.8434700779,157382.18663718543,157356.0350961727,157168.68277414833,157305.94483684836,TASK1
2026-05-11T11:18:45.429+00:00,786,53242,157180.88682662093,157411.8921055665,156994.13800169682,157049.8609006239,157408.2040677314,157382.0525267187,157194.70020469432,157331.96226739435,TASK1
2026-05-11T11:18:45.429+00:00,786,53243,157181.42326848785,157412.1603265,156994.67444356374,157050.12912155734,157408.74050959834,157382.58896858562,157194.70020469432,157332.23048832783,TASK1
2026-05-11T11:18:45.429+00:00,786,53244,157155.7411141087,157386.20995118737,156968.45584731767,157023.91052531128,157382.79013428572,157356.37037233953,157168.7498293817,157306.2801130152,TASK1
2026-05-11T11:18:45.429+00:00,786,53245,157146.42043667086,157377.157494683,156959.40339081327,157014.85806880688,157374.0058987148,157347.04969490168,157159.96559381078,157297.49587744428,TASK1
2026-05-11T11:18:45.429+00:00,786,53246,157170.5603206826,157401.02915776125,156983.81149575848,157038.9979528186,157398.14578272653,157370.92135797994,157184.1054778225,157321.36754052254,TASK1
2026-05-11T11:18:45.429+00:00,786,53247,157195.5048674947,157425.7054836399,157008.48782163713,157063.40605776382,157422.82210860518,157395.86590479207,157208.78180370116,157346.0438664012,TASK1
2026-05-11T11:18:45.429+00:00,786,53248,157192.08505059304,157422.5538876717,157005.33622566893,157060.5226827291,157419.67051263698,157392.98252975734,157205.63020773296,157342.892270433,TASK1
2026-05-11T11:18:45.429+00:00,786,53249,157163.18424501232,157393.92130302446,156976.16719915473,157031.554821915,157390.56854135616,157364.28288987672,157177.1987887858,157313.99146485227,TASK1
2026-05-11T11:18:45.429+00:00,786,53250,157150.91313730637,157381.38197438503,156963.6278705153,157019.01549327557,157378.02921271673,157351.7435612373,157164.92768107983,157301.45213621284,TASK1
2026-05-11T11:18:45.429+00:00,786,53251,157172.63903291692,157402.83964906214,156985.0855451924,157040.74138888612,157399.75510832728,157373.46945684784,157186.6535766904,157323.17803182342,TASK1
2026-05-11T11:18:45.429+00:00,786,53252,157201.87511466446,157432.34395174313,157014.58984787343,157070.24569156714,157430.33229474214,157404.0466432627,157216.9625421718,157353.75521823828,TASK1
2026-05-11T11:18:45.429+00:00,786,53253,157198.4552977628,157428.655913908,157010.90181003828,157066.55765373202,157426.64425690702,157400.09038449413,157213.0062834032,157350.06718040316,TASK1
2026-05-11T11:18:45.429+00:00,786,53254,157166.87228284744,157397.07289899266,156979.31879512293,157034.97463881667,157393.72013732436,157367.7027067784,157180.61860568746,157317.41128175394,TASK1
2026-05-11T11:18:45.429+00:00,786,53255,157158.62448914343,157388.82510528865,156971.07100141892,157026.72684511266,157385.47234362035,157359.45491307438,157172.37081198345,157308.89526711646,TASK1
2026-05-11T11:18:45.429+00:00,786,53256,157182.76437315517,157413.23321023386,156995.47910636413,157051.13495005784,157410.148669499,157383.86301801956,157196.77891692866,157333.57159299514,TASK1
2026-05-11T11:18:45.429+00:00,786,53257,157208.78180370116,157439.78708264674,157021.76475784357,157077.42060153728,157436.43432097844,157410.148669499,157223.0645684081,157359.85724447458,TASK1
2026-05-11T11:18:45.429+00:00,786,53258,157207.5077542672,157438.5130332128,157020.49070840963,157076.14655210334,157434.89205061103,157408.6063991316,157221.52229804068,157358.31497410717,TASK1
2026-05-11T11:18:45.429+00:00,786,53259,157178.07050681955,157409.07578576516,156991.32168189544,157046.97752558917,157405.4548031634,157379.43737261742,157192.3532715265,157329.14594759297,TASK1
2026-05-11T11:18:45.429+00:00,786,53260,157166.06762004705,157397.07289899266,156979.0505741895,157034.97463881667,157393.18369545744,157367.43448584492,157180.61860568746,157317.14306082047,TASK1
2026-05-11T11:18:45.429+00:00,786,53261,157187.79351565763,157418.7987946032,157000.50824886656,157056.43231349374,157414.909591068,157389.16038145547,157202.34450129804,157338.60073549757,TASK1
2026-05-11T11:18:45.429+00:00,786,53262,157212.2016206028,157443.20689954842,157025.18457474525,157080.84041843895,157439.58591694664,157413.56848640068,157226.75260624322,157362.7406195093,TASK1
2026-05-11T11:18:45.429+00:00,786,53263,157210.12290836847,157441.12818731405,157023.37408344436,157079.02992713806,157437.5072047123,157411.7579950998,157224.94211494233,157360.93012820842,TASK1
2026-05-11T11:18:45.429+00:00,786,53264,157183.63609118894,157414.64137013452,156996.61904533135,157052.54310995853,157411.02038753277,157385.27117792025,157198.4552977628,157334.44331102888,TASK1
2026-05-11T11:18:45.429+00:00,786,53265,157176.19296028532,157407.1982392309,156989.17591442773,157045.0999790549,157403.57725662916,157377.82804701664,157191.01216685917,157327.26840105874,TASK1
2026-05-11T11:18:45.429+00:00,786,53266,157203.5514954986,157434.5567744442,157016.53444964104,157072.45851426822,157430.93579184244,157405.18658222994,157218.102481139,157354.62693627202,TASK1
2026-05-11T11:18:45.429+00:00,786,53267,157231.44647257883,157462.18353059096,157044.42942672127,157100.35349134842,157458.83076892266,157433.08155931014,157245.99745821924,157382.52191335225,TASK1
2026-05-11T11:18:45.429+00:00,786,53268,157231.44647257883,157462.18353059096,157044.42942672127,157100.35349134842,157458.83076892266,157433.08155931014,157245.99745821924,157382.52191335225,TASK1
2026-05-11T11:18:45.429+00:00,786,53269,157205.49609726624,157436.23315527834,157018.47905140865,157074.67133696927,157432.88039361004,157406.86296306408,157220.04708290662,157356.57153803963,TASK1
2026-05-11T11:18:45.429+00:00,786,53270,157195.90719889489,157426.9124778405,157008.89015303733,157065.08243859795,157423.5597161722,157397.54228562623,157210.72640546877,157346.9826396683,TASK1
2026-05-11T11:18:45.429+00:00,786,53271,157217.63309450547,157448.63837345105,157030.61604864788,157086.54011327506,157445.28561178275,157419.26818123678,157232.18408014585,157368.4403143454,TASK1
2026-05-11T11:18:45.429+00:00,786,53272,157239.35899011602,157470.09604812815,157052.34194425843,157108.26600888564,157467.0115073933,157440.99407684733,157253.90997575643,157390.16620995596,TASK1
2026-05-11T11:18:45.429+00:00,786,53273,157234.8662894805,157465.60334749264,157047.58102268944,157103.7733082501,157462.51880675778,157436.23315527834,157249.4172751209,157385.67350932045,TASK1
2026-05-11T11:18:45.429+00:00,786,53274,157204.356158299,157435.09321631113,157017.07089150796,157072.99495613514,157431.47223370938,157405.72302409686,157218.63892300596,157355.16337813897,TASK1
2026-05-11T11:18:45.429+00:00,786,53275,157192.3532715265,157423.09032953862,157005.33622566893,157061.2602902961,157419.46934693688,157393.98835825783,157206.63603623345,157343.4287122999,TASK1
2026-05-11T11:18:45.429+00:00,786,53276,157217.23076310527,157447.7666554173,157030.07960678096,157085.86956094138,157444.54800421573,157418.2623527363,157231.58058304558,157368.3062038787,TASK1
2026-05-11T11:18:45.429+00:00,786,53277,157242.97997271776,157473.78408596327,157055.82881639345,157111.61877055393,157470.29721382825,157444.0115623488,157257.59801359155,157394.32363442465,TASK1
2026-05-11T11:18:45.429+00:00,786,53278,157241.1694814169,157471.97359466238,157054.0183250926,157109.80827925305,157468.48672252736,157442.20107104792,157255.78752229066,157392.51314312377,TASK1
2026-05-11T11:18:45.429+00:00,786,53279,157216.02376890468,157447.09610308363,157028.87261258037,157084.93078767427,157443.34101001514,157417.0553585357,157230.64180977843,157367.36743061154,TASK1
2026-05-11T11:18:45.429+00:00,786,53280,157210.4581845353,157441.2622977808,157023.03880727754,157079.09698237144,157437.77542564578,157411.22155323287,157224.8080044756,157361.53362530872,TASK1
2026-05-11T11:18:45.429+00:00,786,53281,157237.28027788165,157467.8161701937,157049.8609006239,157105.65085478436,157464.59751899214,157437.77542564578,157251.36187688852,157388.08749772163,TASK1
2026-05-11T11:18:45.429+00:00,786,53282,157272.95366203235,157503.2213334109,157085.53428477456,157141.05601800157,157502.14844967704,157475.32635633068,157288.64458663997,157425.63842840653,TASK1
2026-05-11T11:18:45.429+00:00,786,53283,157270.33850793107,157500.60617930963,157082.65090973984,157138.4408639003,157499.26507464232,157472.17476036248,157285.76121160522,157422.48683243833,TASK1
2026-05-11T11:18:45.429+00:00,786,53284,157235.2686208807,157465.80451319274,157047.8492436229,157103.63919778337,157462.85408292463,157435.49554771133,157249.35021988754,157385.80761978717,TASK1
2026-05-11T11:18:45.429+00:00,786,53285,157226.48438530977,157457.02027762178,157039.06500805198,157094.85496221244,157454.06984735368,157426.7113121404,157240.5659843166,157377.29160514972,TASK1
2026-05-11T11:18:45.429+00:00,786,53286,157247.94205998685,157478.47795229888,157060.5226827291,157116.58085782302,157475.52752203078,157448.43720775095,157262.29187992716,157399.01750076027,TASK1
2026-05-11T11:18:45.429+00:00,786,53287,157270.20439746435,157500.4720688429,157082.78502020656,157138.8431953005,157497.5216385748,157470.43132429497,157284.55421740466,157421.0116173043,TASK1
2026-05-11T11:18:45.429+00:00,786,53288,157265.97991776228,157496.24758914084,157078.56054050452,157134.61871559845,157493.0289379393,157466.47506552638,157280.3297377026,157416.51891666878,TASK1
2026-05-11T11:18:45.429+00:00,786,53289,157235.4697865808,157466.00567889283,157048.3186302565,157104.3768053504,157462.78702769126,157436.50137621182,157249.8196065211,157386.27700642074,TASK1
2026-05-11T11:18:45.429+00:00,786,53290,157225.34444634253,157455.88033865456,157038.4615109517,157094.25146511215,157452.66168745302,157426.64425690702,157239.69426628284,157376.1516661825,TASK1
2026-05-11T11:18:45.429+00:00,786,53291,157248.14322568694,157478.4108970655,157061.2602902961,157116.78202352312,157475.4604667974,157449.17481531797,157262.49304562726,157398.9504455269,TASK1
2026-05-11T11:18:45.429+00:00,786,53292,157272.8195515656,157503.0872229442,157086.20483710823,157141.45834940177,157500.1367926761,157474.1193621301,157287.43759243938,157423.89499233902,TASK1
2026-05-11T11:18:45.429+00:00,786,53293,157271.8137230651,157502.0813944437,157085.19900860774,157140.45252090128,157499.1309641756,157473.1135336296,157286.4317639389,157423.157384772,TASK1
2026-05-11T11:18:45.429+00:00,786,53294,157246.13156868596,157476.39924006455,157059.5168542286,157115.0385874556,157473.7170307299,157447.163158317,157260.74960955975,157397.47523039285,TASK1
2026-05-11T11:18:45.429+00:00,786,53295,157238.95665871582,157469.22433009438,157052.6101651919,157107.86367748544,157466.81034169323,157439.98824834684,157253.30647865613,157390.56854135616,TASK1
2026-05-11T11:18:45.429+00:00,786,53296,157263.63298459447,157494.43709783998,157077.55471200403,157132.5400033641,157491.75488850533,157464.93279515897,157278.25102546826,157415.51308816829,TASK1
2026-05-11T11:18:45.429+00:00,786,53297,157288.04108953968,157518.84520278516,157101.69459601576,157156.9481083093,157516.16299345053,157489.34090010417,157302.65913041343,157439.65297218002,TASK1
2026-05-11T11:18:45.429+00:00,786,53298,157285.96237730532,157516.49826961735,157099.34766284795,157154.6011751415,157514.0842812162,157487.2621878698,157300.31219724563,157437.3060390122,TASK1
2026-05-11T11:18:45.429+00:00,786,53299,157258.93911825886,157489.74323150437,157072.32440380147,157127.84613702848,157487.0610221697,157460.23892882335,157273.0207172657,157410.5510008992,TASK1
2026-05-11T11:18:45.429+00:00,786,53300,157249.35021988754,157480.15433313305,157063.00372636362,157118.52545959063,157477.74034473186,157450.9182513855,157263.9682607613,157401.23032346135,TASK1
2026-05-11T11:18:45.429+00:00,786,53301,157271.0761154981,157501.8802287436,157084.72962197417,157140.25135520118,157499.46624034242,157472.37592606258,157285.69415637187,157422.68799813843,TASK1
2026-05-11T11:18:45.429+00:00,786,53302,157293.60667390903,157524.41078715454,157107.52840131862,157162.78191361213,157522.26501968683,157494.90648447353,157308.22471478282,157445.2185565494,TASK1
2026-05-11T11:18:45.429+00:00,786,53303,157292.06440354162,157522.86851678713,157105.71791001773,157160.97142231124,157520.45452838595,157493.3642141061,157306.41422348193,157443.4080652485,TASK1
2026-05-11T11:18:45.429+00:00,786,53304,157265.57758636208,157496.64992054104,157079.49931377164,157134.75282606517,157493.9677112064,157466.87739692657,157280.19562723587,157417.4576899359,TASK1
2026-05-11T11:18:45.429+00:00,786,53305,157256.79335079115,157487.8656849701,157070.7150782007,157125.96859049425,157485.18347563548,157457.82494042217,157271.41139166494,157408.4052334315,TASK1
2026-05-11T11:18:45.429+00:00,786,53306,157281.4696766698,157512.54201084876,157095.39140407936,157150.6449163729,157509.59158058066,157482.50126630085,157295.81949661011,157433.08155931014,TASK1
2026-05-11T11:18:45.429+00:00,786,53307,157309.56581945013,157540.16876699554,157122.74993929267,157178.0034515862,157536.81600532724,157510.46329861443,157324.04974985716,157460.77537069027,TASK1
2026-05-11T11:18:45.429+00:00,786,53308,157308.2917700162,157539.16293849505,157121.47588985873,157176.72940215224,157535.54195589328,157509.45747011394,157322.77570042323,157459.23310032286,TASK1
2026-05-11T11:18:45.429+00:00,786,53309,157281.2685109697,157512.40790038204,157094.45263081224,157149.70614310578,157508.51869684682,157482.165990134,157295.4842204433,157432.2098412764,TASK1
2026-05-11T11:18:45.429+00:00,786,53310,157272.2160544653,157503.35544387763,157085.6683952413,157140.65368660138,157499.46624034242,157473.1135336296,157286.9682058058,157423.42560570547,TASK1
2026-05-11T11:18:45.429+00:00,786,53311,157296.0877175436,157527.22710695592,157109.27183738613,157164.52534967964,157523.33790342067,157497.25341764133,157310.8398688841,157447.29726878373,TASK1
2026-05-11T11:18:45.429+00:00,786,53312,157335.7844156962,157566.92380510853,157148.96853553876,157204.22204783227,157565.71681090794,157539.90054606207,157353.21877637136,157489.40795533752,TASK1
2026-05-11T11:18:45.429+00:00,786,53313,157337.66196223046,157568.8013516428,157150.57786113952,157206.0995943665,157567.5943574422,157541.7780925963,157354.82810197212,157490.74906000483,TASK1
2026-05-11T11:18:45.429+00:00,786,53314,157290.79035410768,157521.92974352,157103.70625301672,157159.22798624373,157518.30876091824,157492.2242751389,157305.27428451471,157441.73168441435,TASK1
2026-05-11T11:18:45.429+00:00,786,53315,157279.3239092021,157510.19507768095,157092.23980811116,157147.4933204047,157506.30587414574,157480.2213883664,157293.80783960913,157429.99701857532,TASK1
2026-05-11T11:18:45.429+00:00,786,53316,157301.31802574612,157532.45741515845,157114.23392465521,157169.48743694872,157528.56821162323,157502.4837258439,157315.80195615315,157451.99113511934,TASK1
2026-05-11T11:18:45.429+00:00,786,53317,157324.11680509054,157555.52441543632,157137.30092493308,157192.82265816006,157551.90343283457,157525.81894705523,157338.86895643105,157475.32635633068,TASK1
2026-05-11T11:18:45.429+00:00,786,53318,157320.69698818887,157551.8363776012,157133.61288709796,157189.13462032494,157547.94717406598,157521.86268828664,157335.1809185959,157471.90653942904,TASK1
2026-05-11T11:18:45.429+00:00,786,53319,157290.45507794083,157521.86268828664,157103.63919778337,157158.8927100769,157517.70526381794,157491.6207780386,157305.20722928134,157441.664629181,TASK1
2026-05-11T11:18:45.429+00:00,786,53320,157280.3297377026,157511.7373480484,157093.5138575451,157148.76736983866,157507.5799235797,157481.49543780036,157295.0818890431,157431.8075098762,TASK1
2026-05-11T11:18:45.429+00:00,786,53321,157303.128517047,157534.26790645934,157116.04441595607,157171.56614918305,157530.11048199065,157504.56243807822,157317.88066838752,157454.60628922062,TASK1
2026-05-11T11:18:45.429+00:00,786,53322,157327.53662199219,157558.67601140452,157140.45252090128,157195.97425412826,157554.51858693582,157528.97054302343,157342.02055239925,157479.0143941658,TASK1
2026-05-11T11:18:45.429+00:00,786,53323,157325.45790975785,157556.5972991702,157138.6420296004,157193.62732096046,157552.4398747015,157526.62360985563,157339.9418401649,157477.20390286495,TASK1
2026-05-11T11:18:45.429+00:00,786,53324,157297.89820884448,157529.03759825678,157111.082328687,157166.06762004705,157524.61195285464,157499.06390894222,157312.3821392515,157449.64420195154,TASK1
2026-05-11T11:18:45.429+00:00,786,53325,157288.5775314066,157519.44869988546,157101.7616512491,157156.7469426092,157515.29127541676,157489.74323150437,157303.06146181363,157440.05530358021,TASK1
2026-05-11T11:18:45.429+00:00,786,53326,157312.44919448486,157543.05214203027,157125.36509339395,157180.61860568746,157539.16293849505,157513.34667364915,157326.66490395844,157463.65874572503,TASK1
2026-05-11T11:18:45.734+00:00,787,53327,157335.24797382927,157566.11914230813,157147.8956518049,157203.41738503188,157561.96171783947,157536.41367392705,157349.7319042363,157486.45752506942,TASK1
2026-05-11T11:18:45.734+00:00,787,53328,157335.11386336255,157565.9850318414,157147.82859657152,157203.41738503188,157562.431104473,157536.21250822695,157349.66484900296,157486.25635936932,TASK1
2026-05-11T11:18:45.734+00:00,787,53329,157313.45502298535,157544.3261914642,157126.16975619434,157181.75854465467,157540.77226409584,157514.82188878322,157327.73778769228,157464.59751899214,TASK1
2026-05-11T11:18:45.734+00:00,787,53330,157310.0352060837,157540.6381536291,157122.74993929267,157178.33872775303,157537.35244719416,157511.40207188154,157324.58619172408,157460.90948115702,TASK1
2026-05-11T11:18:45.734+00:00,787,53331,157336.85729943006,157567.46024697545,157149.57203263906,157205.1608210994,157564.17454054052,157537.95594429446,157351.140064137,157487.73157450338,TASK1
2026-05-11T11:18:45.734+00:00,787,53332,157360.9971834418,157591.60013098718,157173.7119166508,157229.30070511112,157588.31442455226,157562.0958283062,157375.27994814873,157511.87145851512,TASK1
2026-05-11T11:18:45.734+00:00,787,53333,157357.57736654012,157588.18031408553,157170.29209974912,157225.612667276,157584.8946076506,157558.67601140452,157371.8601312471,157508.18342068,TASK1
2026-05-11T11:18:45.734+00:00,787,53334,157327.3354562921,157557.9384038375,157140.05018950108,157195.37075702797,157554.65269740258,157528.16588022304,157341.35000006558,157478.2097313654,TASK1
2026-05-11T11:18:45.734+00:00,787,53335,157314.79612765266,157545.66729613155,157127.77908179513,157182.83142838854,157542.11336876315,157515.89477251706,157328.81067142615,157465.67040272598,TASK1
2026-05-11T11:18:45.734+00:00,787,53336,157334.10803486206,157565.2474242744,157147.35920993797,157202.67977746486,157561.42527597252,157535.47490065993,157348.390799569,157485.25053086886,TASK1
