timestamp_utc,packet_index,sample_index,AF3,AF4,F3,F4,FC5,FC6,O2,O1,label
2026-05-26T09:36:33.986+00:00,1148,83202,79097.95094704043,69916.27900794493,171828.16378213928,122829.89893316018,115174.40410547305,104643.11148442166,143166.61127407683,127706.75900063025,TASK2
2026-05-26T09:36:33.986+00:00,1148,83203,79097.74978134033,69918.42477541264,171825.01218617108,122831.77647969442,115174.94054733998,104645.25725188937,143166.61127407683,127709.17298903142,TASK2
2026-05-26T09:36:33.986+00:00,1148,83204,79099.35910694112,69921.91164754768,171825.01218617108,122839.28666583142,115174.47116070642,104646.33013562323,143166.1418874433,127708.16716053094,TASK2
2026-05-26T09:36:33.986+00:00,1148,83205,79097.54861564023,69923.52097314845,171822.3970320698,122845.1875263676,115172.12422753862,104644.2514233889,143162.1856286747,127700.72402962732,TASK2
2026-05-26T09:36:33.986+00:00,1148,83206,79092.5194731378,69933.44514768661,171819.78187796855,122848.40617756918,115171.11839903813,104642.97737395494,143163.25851240856,127700.99225056078,TASK2
2026-05-26T09:36:33.986+00:00,1148,83207,79096.54278713976,69933.44514768661,171819.0442704015,122848.20501186908,115172.99594557237,104640.8986617206,143164.3313961424,127701.26047149424,TASK2
2026-05-26T09:36:33.986+00:00,1148,83208,79100.02965927478,69928.1477842507,171821.45825880268,122850.88722120371,115170.91723333803,104643.58087105522,143163.3255676419,127696.76777085873,TASK2
2026-05-26T09:36:33.986+00:00,1148,83209,79099.82849357468,69928.1477842507,171823.6040262704,122853.30120960489,115173.86766360613,104645.72663852293,143167.61710257732,127701.86396859454,TASK2
2026-05-26T09:36:33.986+00:00,1148,83210,79099.35910694112,69928.68422611764,171822.06175590298,122848.80850896936,115172.86183510564,104638.28350761932,143165.00194847607,127697.90770982594,TASK2
2026-05-26T09:36:33.986+00:00,1148,83211,79098.62149937409,69926.33729294983,171819.4466018017,122844.58402926732,115169.97846007091,104633.25436511688,143163.19145717518,127696.09721852507,TASK2
2026-05-26T09:36:33.986+00:00,1148,83212,79096.81100807321,69925.5996853828,171816.56322676697,122842.2370960995,115166.82686410271,104633.05319941678,143163.19145717518,127692.67740162341,TASK2
2026-05-26T09:36:33.986+00:00,1148,83213,79095.2687377058,69921.6434266142,171812.87518893185,122839.8901629317,115165.82103560222,104631.77914998283,143162.9902914751,127689.25758472174,TASK2
2026-05-26T09:36:33.986+00:00,1148,83214,79095.53695863926,69916.3460631783,171813.1434098653,122839.6889972316,115169.57612867071,104629.96865868194,143163.25851240856,127689.05641902164,TASK2
2026-05-26T09:36:33.986+00:00,1148,83215,79095.33579293916,69918.76005157948,171813.1434098653,122836.26918032994,115171.72189613842,104627.62172551414,143164.06317520892,127688.31881145462,TASK2
2026-05-26T09:36:33.986+00:00,1148,83216,79094.06174350521,69922.78336558143,171812.13758136483,122835.79979369638,115170.71606763793,104627.15233888058,143164.59961707587,127688.11764575452,TASK2
2026-05-26T09:36:33.986+00:00,1148,83217,79091.7148103374,69916.94956027859,171813.21046509867,122840.35954956527,115172.05717230524,104627.95700168097,143165.9407217432,127688.11764575452,TASK2
2026-05-26T09:36:33.986+00:00,1148,83218,79083.73523756686,69913.79796431039,171816.6973372337,122845.72396823454,115173.39827697257,104626.41473131355,143164.1302304423,127688.38586668798,TASK2
2026-05-26T09:36:33.986+00:00,1148,83219,79085.6127841011,69915.67551084464,171820.18420936874,122848.1379566357,115170.51490193783,104630.4380453155,143163.9290647422,127685.23427071978,TASK2
2026-05-26T09:36:33.986+00:00,1148,83220,79088.02677250227,69922.11281324778,171821.7935349695,122845.7910234679,115167.09508503617,104630.70626624898,143162.9232362417,127681.2780119512,TASK2
2026-05-26T09:36:33.986+00:00,1148,83221,79089.90431903652,69929.35477845129,171821.05592740249,122844.51697403395,115172.72772463891,104632.85203371668,143157.35765187236,127682.61911661852,TASK2
2026-05-26T09:36:33.986+00:00,1148,83222,79093.79352257175,69935.18858375412,171818.91015993478,122848.67439850264,115178.8297508752,104639.02111518635,143161.1798001742,127692.94562255687,TASK2
2026-05-26T09:36:33.986+00:00,1148,83223,79101.84015057566,69937.33435122183,171817.0996686339,122851.62482877074,115178.8297508752,104640.8986617206,143163.3255676419,127695.35961095804,TASK2
2026-05-26T09:36:33.986+00:00,1148,83224,79103.44947617644,69932.3052087194,171814.75273546609,122850.61900027025,115177.01925957433,104639.62461228664,143164.9348932427,127693.54911965717,TASK2
2026-05-26T09:36:33.986+00:00,1148,83225,79103.24831047634,69931.2993802189,171811.33291856444,122853.56943053835,115175.20876827344,104642.57504255474,143171.6404165793,127698.91353832644,TASK2
2026-05-26T09:36:33.986+00:00,1148,83226,79099.56027264122,69933.44514768661,171810.05886913047,122852.02716017094,115175.47698920692,104640.4963303204,143165.80661127646,127696.56660515863,TASK2
2026-05-26T09:36:33.986+00:00,1148,83227,79096.94511853994,69934.78625235392,171806.63905222883,122848.3391223358,115173.93471883949,104638.14939715259,143163.19145717518,127689.39169518847,TASK2
2026-05-26T09:36:33.986+00:00,1148,83228,79095.93929003946,69931.9028773192,171806.43788652873,122848.1379566357,115174.20293977296,104640.02694368684,143166.1418874433,127691.00102078926,TASK2
2026-05-26T09:36:33.986+00:00,1148,83229,79091.7148103374,69929.55594415139,171807.77899119604,122848.1379566357,115175.00760257334,104641.36804835415,143166.6783293102,127694.21967199082,TASK2
2026-05-26T09:36:33.986+00:00,1148,83230,79094.39701967203,69929.82416508485,171811.80230519798,122849.7472822365,115176.34870724067,104641.36804835415,143166.94655024368,127694.48789292428,TASK2
2026-05-26T09:36:33.986+00:00,1148,83231,79099.76143834132,69928.28189471744,171812.33874706493,122846.5956862683,115177.68981190799,104640.8986617206,143170.4334223787,127699.85231159355,TASK2
2026-05-26T09:36:33.986+00:00,1148,83232,79098.75560984082,69932.3052087194,171812.33874706493,122843.17586936663,115179.8355793757,104643.31265012176,143170.70164331218,127695.89605282497,TASK2
2026-05-26T09:36:33.986+00:00,1148,83233,79094.26290920531,69936.32852272135,171814.75273546609,122843.4440903001,115183.85889337765,104646.53130132332,143171.2380851791,127695.42666619142,TASK2
2026-05-26T09:36:33.986+00:00,1148,83234,79093.25708070482,69939.54717392291,171817.7031657342,122843.71231123355,115184.12711431111,104651.62749905913,143173.92029451372,127702.132189528,TASK2
2026-05-26T09:36:33.986+00:00,1148,83235,79098.88972030756,69936.93201982164,171818.77604946806,122839.75605246497,115184.9317771115,104654.30970839378,143174.1885154472,127704.81439886264,TASK2
2026-05-26T09:36:33.986+00:00,1148,83236,79094.66524060551,69930.82999358534,171812.67402323175,122832.31292156136,115182.31662301024,104652.49921709289,143170.2322566786,127707.49660819727,TASK2
2026-05-26T09:36:33.986+00:00,1148,83237,79090.70898183691,69927.67839761714,171812.9422441652,122830.23420932701,115182.5848439437,104652.02983045933,143169.2264281781,127711.51992219922,TASK2
2026-05-26T09:36:33.986+00:00,1148,83238,79088.63026960257,69925.33146444934,171815.8926744333,122826.54617149188,115186.33993701219,104654.98026072743,143166.0748322099,127708.6365471645,TASK2
2026-05-26T09:36:33.986+00:00,1148,83239,79087.08799923515,69928.28189471744,171818.8431047014,122826.3450057918,115187.41282074605,104656.85780726168,143167.95237874417,127711.31875649914,TASK2
2026-05-26T09:36:33.986+00:00,1148,83240,79082.32707766617,69936.06030178787,171821.52531403606,122823.46163075705,115182.65189917706,104660.88112126364,143170.90280901227,127711.5869774326,TASK2
2026-05-26T09:36:33.986+00:00,1148,83241,79085.8139498012,69943.3022669914,171822.5981977699,122817.62782545421,115190.16208531405,104662.49044686442,143167.75121304407,127709.50826519825,TASK2
2026-05-26T09:36:33.986+00:00,1148,83242,79090.64192660355,69945.17981352564,171820.787706469,122818.70070918807,115190.69852718097,104664.90443526559,143166.20894267666,127710.5811489321,TASK2
2026-05-26T09:36:33.986+00:00,1148,83243,79092.25125220433,69940.9553338236,171820.31831983547,122819.237151055,115191.2349690479,104670.0006330014,143165.4713351096,127711.92225359942,TASK2
2026-05-26T09:36:33.986+00:00,1148,83244,79089.63609810306,69938.34017972232,171823.0005291701,122820.0418138554,115193.91717838254,104674.02394700336,143166.81243977693,127712.45869546635,TASK2
2026-05-26T09:36:33.986+00:00,1148,83245,79087.82560680217,69940.7541681235,171824.3416338374,122823.79690692388,115194.9900621164,104674.29216793682,143167.0806607104,127714.3362420006,TASK2
2026-05-26T09:36:33.986+00:00,1148,83246,79086.8197783017,69942.63171465773,171820.92181693576,122820.91353188915,115196.33116678371,104676.16971447106,143168.6899863112,127719.16421880295,TASK2
2026-05-26T09:36:33.986+00:00,1148,83247,79087.69149633545,69944.77748212546,171820.8547617024,122820.71236618905,115200.82386741923,104680.12597323966,143167.34888164388,127715.140904801,TASK2
2026-05-26T09:36:33.986+00:00,1148,83248,79093.86057780511,69941.89410709072,171820.6535960023,122820.98058712251,115201.36030928616,104679.12014473916,143161.24685540757,127709.30709949815,TASK2
2026-05-26T09:36:33.986+00:00,1148,83249,79096.81100807321,69944.30809549188,171822.79936347,122822.85813365676,115202.43319302001,104677.04143250482,143160.777468774,127708.30127099766,TASK2
2026-05-26T09:36:33.986+00:00,1148,83250,79095.2687377058,69946.45386295959,171825.48157280465,122822.3887470232,115201.96380638645,104676.03560400433,143159.7716402735,127706.22255876331,TASK2
2026-05-26T09:36:33.986+00:00,1148,83251,79093.72646733838,69944.37515072526,171824.2075233707,122820.31003478885,115198.54398948478,104675.56621737077,143157.15648617226,127707.29544249718,TASK2
2026-05-26T09:36:33.986+00:00,1148,83252,79088.9655457694,69940.41889195667,171822.12881113635,122817.96310162105,115194.85595164966,104674.02394700336,143155.61421580485,127706.82605586361,TASK2
2026-05-26T09:36:33.986+00:00,1148,83253,79085.8139498012,69940.41889195667,171824.5427995375,122817.76193592095,115191.70435568146,104674.56038887029,143155.14482917127,127700.99225056078,TASK2
2026-05-26T09:36:33.986+00:00,1148,83254,79089.83726380316,69943.90576409169,171825.88390420482,122818.8348196548,115192.50901848185,104676.97437727146,143157.0223757055,127701.79691336118,TASK2
2026-05-26T09:36:33.986+00:00,1148,83255,79096.00634527282,69939.41306345617,171825.1462966378,122817.56077022085,115192.30785278176,104680.46124940648,143160.50924784056,127709.84354136509,TASK2
2026-05-26T09:36:33.986+00:00,1148,83256,79095.80517957272,69942.36349372428,171821.1900378692,122815.4820579865,115191.0338033478,104677.57787437175,143156.016547205,127703.47329419531,TASK2
2026-05-26T09:36:33.986+00:00,1148,83257,79093.19002547146,69948.26435426048,171818.30666283448,122814.20800855255,115191.30202428126,104675.76738307087,143155.01071870455,127703.74151512879,TASK2
2026-05-26T09:36:33.986+00:00,1148,83258,79097.21333947341,69945.64920015921,171819.11132563488,122812.1292963182,115196.66644295055,104673.68867083652,143155.01071870455,127704.81439886264,TASK2
2026-05-26T09:36:33.986+00:00,1148,83259,79095.93929003946,69943.57048792487,171818.10549713438,122813.47040098553,115196.66644295055,104673.21928420296,143156.6200443053,127702.46746569483,TASK2
2026-05-26T09:36:33.986+00:00,1148,83260,79099.96260404142,69944.64337165872,171817.36788956737,122815.07972658631,115185.7364399119,104675.9014935376,143158.76581177302,127700.9251953274,TASK2
2026-05-26T09:36:33.986+00:00,1148,83261,79103.7176971099,69943.90576409169,171817.36788956737,122811.39168875119,115188.95509111346,104675.7003278375,143159.0340327065,127699.91936682693,TASK2
2026-05-26T09:36:33.986+00:00,1148,83262,79101.90720580902,69940.21772625657,171816.63028200035,122812.7327934185,115188.95509111346,104670.4029644016,143153.4684483371,127697.30421272565,TASK2
2026-05-26T09:36:33.986+00:00,1148,83263,79100.63315637507,69942.89993559121,171816.16089536677,122815.6832236866,115187.14459981259,104667.2513684334,143151.1215151693,127693.34795395707,TASK2
2026-05-26T09:36:33.986+00:00,1148,83264,79099.09088600766,69948.80079612741,171818.30666283448,122815.6832236866,115189.2903672803,104670.47001963496,143150.11568666884,127693.14678825697,TASK2
2026-05-26T09:36:33.986+00:00,1148,83265,79102.30953720922,69950.94656359512,171822.32997683645,122818.36543302124,115194.92300688302,104676.37088017116,143154.40722160426,127700.38875346049,TASK2
2026-05-26T09:36:33.986+00:00,1148,83266,79105.25996747732,69954.43343573014,171821.5923692694,122820.24297955549,115194.72184118292,104679.8577523062,143153.40139310376,127702.26629999474,TASK2
2026-05-26T09:36:33.986+00:00,1148,83267,79106.33285121118,69956.84742413131,171816.02678490005,122819.50537198846,115192.64312894859,104677.51081913838,143149.71335526864,127700.99225056078,TASK2
2026-05-26T09:36:33.986+00:00,1148,83268,79106.60107214464,69953.42760722965,171814.75273546609,122823.79690692388,115195.05711734976,104678.04726100531,143153.20022740366,127696.76777085873,TASK2
2026-05-26T09:36:33.986+00:00,1148,83269,79111.16082801351,69952.42177872917,171819.31249133497,122826.47911625852,115197.47110575093,104678.31548193877,143156.4188786052,127698.91353832644,TASK2
2026-05-26T09:36:33.986+00:00,1148,83270,79111.69726988045,69953.49466246302,171822.53114253655,122825.47328775802,115197.00171911737,104678.11431623867,143159.6375298068,127702.93685232839,TASK2
2026-05-26T09:36:33.986+00:00,1148,83271,79109.35033671264,69949.80662462789,171822.06175590298,122825.7415086915,115195.72766968342,104677.91315053857,143159.6375298068,127704.54617792918,TASK2
2026-05-26T09:36:33.986+00:00,1148,83272,79110.4232204465,69945.04570305892,171823.13463963685,122832.17881109462,115194.45362024946,104680.59535987322,143161.7832972745,127703.54034942869,TASK2
2026-05-26T09:36:33.986+00:00,1148,83273,79110.4232204465,69949.60545892779,171825.81684897147,122836.47034603004,115194.25245454937,104683.00934827438,143160.24102690708,127703.33918372859,TASK2
2026-05-26T09:36:33.986+00:00,1148,83274,79115.85469434914,69960.46840673308,171829.23666587312,122838.48200303102,115194.25245454937,104683.14345874112,143157.8270385059,127705.4849511963,TASK2
2026-05-26T09:36:33.986+00:00,1148,83275,79116.92757808299,69967.7103719366,171829.5048868066,122837.20795359707,115191.36907951464,104683.41167967458,143158.89992223977,127703.13801802849,TASK2
2026-05-26T09:36:33.986+00:00,1148,83276,79111.89843558054,69967.5092062365,171826.62151177187,122839.08550013132,115183.38950674409,104687.16677274308,143158.69875653967,127702.66863139493,TASK2
2026-05-26T09:36:33.986+00:00,1148,83277,79112.43487744748,69964.08938933484,171827.1579536388,122841.23126759903,115187.6810416795,104690.11720301118,143159.50341934006,127707.76482913074,TASK2
2026-05-26T09:36:33.986+00:00,1148,83278,79118.60395891714,69964.3576102683,171830.91304670728,122842.30415133288,115194.11834408264,104688.84315357723,143157.96114897265,127703.27212849523,TASK2
2026-05-26T09:36:33.986+00:00,1148,83279,79117.59813041665,69963.08356083435,171830.91304670728,122839.42077629814,115196.53233248381,104684.35045294171,143155.61421580485,127700.38875346049,TASK2
2026-05-26T09:36:33.986+00:00,1148,83280,79117.59813041665,69964.9611073686,171825.88390420482,122834.39163379569,115194.9900621164,104681.46707790697,143154.8766082378,127701.99807906128,TASK2
2026-05-26T09:36:33.986+00:00,1148,83281,79120.01211881782,69965.22932830206,171821.65942450278,122834.39163379569,115195.52650398332,104681.73529884043,143152.26145413655,127701.26047149424,TASK2
2026-05-26T09:36:33.986+00:00,1148,83282,79118.73806938386,69960.73662766654,171821.92764543626,122833.38580529521,115195.52650398332,104677.77904007185,143147.76875350103,127702.3333552281,TASK2
2026-05-26T09:36:33.986+00:00,1148,83283,79117.19579901645,69959.46257823259,171820.38537506884,122827.55199999237,115191.57024521472,104674.35922317019,143149.3780791018,127703.67445989541,TASK2
2026-05-26T09:36:33.986+00:00,1148,83284,79116.45819144942,69961.07190383336,171821.45825880268,122828.35666279276,115192.64312894859,104675.96854877096,143153.40139310376,127701.86396859454,TASK2
2026-05-26T09:36:33.986+00:00,1148,83285,79118.8721798506,69958.72497066556,171825.48157280465,122835.59862799628,115196.39822201707,104677.3096534383,143154.20605590416,127701.39458196098,TASK2
2026-05-26T09:36:33.986+00:00,1148,83286,79119.676842651,69958.72497066556,171823.67108150377,122838.54905826438,115197.7393266844,104675.23094120395,143157.15648617226,127705.6861168964,TASK2
2026-05-26T09:36:33.986+00:00,1148,83287,79119.20745601742,69965.43049400215,171824.47574430416,122840.15838386517,115201.76264068636,104677.1084877382,143160.64335830728,127706.49077969679,TASK2
2026-05-26T09:36:33.986+00:00,1148,83288,79121.08500255167,69966.23515680255,171825.28040710455,122837.00678789697,115207.93172215602,104681.13180174015,143160.44219260718,127707.56366343064,TASK2
2026-05-26T09:36:33.986+00:00,1148,83289,79119.81095311772,69961.2060143001,171821.86059020288,122838.07967163083,115205.04834712128,104682.47290640746,143159.9728059736,127709.17298903142,TASK2
2026-05-26T09:36:33.986+00:00,1148,83290,79123.83426711967,69963.08356083435,171823.2016948702,122841.83476469932,115202.96963488693,104685.42333667557,143162.11857344132,127710.24587276527,TASK2
2026-05-26T09:36:33.986+00:00,1148,83291,79123.09665955266,69971.13018883826,171826.42034607177,122844.24875310049,115202.96963488693,104688.10554601019,143161.3809658743,127710.7823146322,TASK2
2026-05-26T09:36:33.986+00:00,1148,83292,79122.35905198562,69972.20307257211,171825.68273850475,122847.46740430205,115204.31073955426,104686.83149657624,143162.9902914751,127709.50826519825,TASK2
2026-05-26T09:36:33.986+00:00,1148,83293,79125.84592412066,69972.73951443903,171825.48157280465,122851.22249737055,115207.26116982236,104688.17260124357,143165.9407217432,127712.45869546635,TASK2
2026-05-26T09:36:33.986+00:00,1148,83294,79129.33279625568,69970.6608022047,171828.7002240062,122853.63648577171,115211.28448382432,104689.24548497742,143167.2818264105,127713.26335826675,TASK2
2026-05-26T09:36:33.986+00:00,1148,83295,79124.30365375325,69968.58208997035,171828.4990583061,122853.16709913815,115214.77135595934,104686.09388900922,143169.15937294476,127715.40912573446,TASK2
2026-05-26T09:36:33.986+00:00,1148,83296,79123.56604618621,69965.69871493561,171827.76145073908,122848.9426194361,115216.91712342705,104684.81983957527,143169.69581481168,127723.45575373837,TASK2
2026-05-26T09:36:33.986+00:00,1148,83297,79124.90715085353,69964.42466550166,171826.48740130512,122849.47906130303,115214.8384111927,104684.08223200824,143168.6899863112,127720.57237870363,TASK2
2026-05-26T09:36:33.986+00:00,1148,83298,79126.24825552086,69966.03399110245,171824.9451309377,122847.93679093561,115214.8384111927,104683.34462444122,143167.41593687722,127713.12924780001,TASK2
2026-05-26T09:36:33.986+00:00,1148,83299,79125.24242702036,69970.59374697132,171824.47574430416,122851.15544213718,115211.6868152245,104685.75861284239,143167.6841578107,127712.92808209991,TASK2
2026-05-26T09:36:33.986+00:00,1148,83300,79125.04126132026,69972.47129350557,171822.12881113635,122849.88139270323,115211.4856495244,104687.36793844317,143168.22059967762,127717.75605890226,TASK2
2026-05-26T09:36:33.992+00:00,1148,83301,79126.11414505412,69973.8123981729,171817.0996686339,122849.1437851362,115210.74804195738,104685.02100527537,143166.6783293102,127717.75605890226,TASK2
2026-05-26T09:36:34.304+00:00,1149,83302,79125.64475842056,69974.08061910636,171817.0996686339,122850.48488980351,115210.01043439037,104684.81983957527,143161.64918680777,127715.140904801,TASK2
2026-05-26T09:36:34.304+00:00,1149,83303,79124.37070898661,69972.80656967241,171818.17255236776,122848.1379566357,115206.32239655523,104680.05891800628,143152.3285093699,127709.57532043161,TASK2
2026-05-26T09:36:34.304+00:00,1149,83304,79124.37070898661,69973.6112324728,171815.82561919995,122847.93679093561,115206.32239655523,104675.29799643731,143143.00783193205,127703.20507326185,TASK2
2026-05-26T09:36:34.304+00:00,1149,83305,79125.98003458738,69973.54417723943,171813.5457412655,122849.9484479366,115210.34571055719,104676.16971447106,143141.33145109788,127699.38292496,TASK2
2026-05-26T09:36:34.304+00:00,1149,83306,79125.98003458738,69972.00190687201,171806.63905222883,122844.38286356723,115207.46233552245,104672.7498975694,143134.69298299466,127694.62200339102,TASK2
2026-05-26T09:36:34.304+00:00,1149,83307,79123.09665955266,69968.58208997035,171803.21923532715,122838.28083733092,115200.55564648577,104666.91609226656,143127.51807302452,127686.37420968701,TASK2
2026-05-26T09:36:34.304+00:00,1149,83308,79122.09083105216,69963.5529474679,171801.14052309282,122835.93390416312,115201.89675115308,104664.3009381653,143125.1711398567,127683.75905558573,TASK2
2026-05-26T09:36:34.304+00:00,1149,83309,79114.915921082,69961.74245616703,171803.01806962705,122834.92807566262,115202.16497208654,104661.1493421971,143122.0195438885,127680.07101775061,TASK2
2026-05-26T09:36:34.304+00:00,1149,83310,79113.10542978114,69961.54129046694,171798.25714805807,122831.77647969442,115188.01631784634,104657.72952529544,143110.8213199164,127667.79991004465,TASK2
2026-05-26T09:36:34.304+00:00,1149,83311,79112.63604314756,69959.19435729913,171790.545796221,122829.16132559316,115182.9871753439,104654.30970839378,143103.64640994623,127662.23432567528,TASK2
2026-05-26T09:36:34.304+00:00,1149,83312,79112.43487744748,69956.31098226439,171786.32131651894,122824.13218309071,115180.90846310955,104648.47590309093,143096.20327904262,127653.18186917088,TASK2
2026-05-26T09:36:34.304+00:00,1149,83313,79111.9654908139,69956.10981656429,171782.0968368169,122815.61616845324,115177.48864620789,104642.91031872157,143088.760148139,127641.17898239839,TASK2
2026-05-26T09:36:34.304+00:00,1149,83314,79111.49610418035,69955.1039880638,171780.01812458254,122810.05058408387,115175.67815490701,104639.4905018199,143084.53566843696,127630.78542122667,TASK2
2026-05-26T09:36:34.304+00:00,1149,83315,79110.49027567985,69951.9523920956,171777.1347495478,122807.16720904913,115173.3312217392,104635.53424305131,143081.38407246876,127625.75627872422,TASK2
2026-05-26T09:36:34.304+00:00,1149,83316,79108.67978437898,69952.22061302907,171772.37382797882,122805.89315961518,115168.83852110368,104632.91908895005,143079.57358116788,127627.90204619193,TASK2
2026-05-26T09:36:34.304+00:00,1149,83317,79107.94217681195,69949.33723799433,171770.02689481102,122806.69782241558,115168.63735540358,104634.7966354843,143079.84180210135,127630.85247646003,TASK2
2026-05-26T09:36:34.304+00:00,1149,83318,79107.47279017839,69949.13607229423,171771.09977854489,122807.2342642825,115171.05134380476,104630.30393484878,143076.15376426623,127624.21400835681,TASK2
2026-05-26T09:36:34.304+00:00,1149,83319,79106.19874074444,69949.67251416117,171774.050208813,122803.00978458044,115171.05134380476,104626.61589701365,143071.39284269724,127618.1119821205,TASK2
2026-05-26T09:36:34.304+00:00,1149,83320,79098.48738890736,69954.23227003004,171777.26886001453,122804.0826683143,115175.61109967364,104625.3418475797,143069.58235139636,127619.18486585436,TASK2
2026-05-26T09:36:34.304+00:00,1149,83321,79100.90137730853,69954.5004909635,171774.3854849798,122807.0330985824,115175.61109967364,104624.06779814574,143065.08965076084,127616.30149081962,TASK2
2026-05-26T09:36:34.304+00:00,1149,83322,79101.16959824199,69943.83870885833,171765.60124940888,122809.44708698358,115171.65484090506,104623.06196964526,143063.0109385265,127618.44725828733,TASK2
2026-05-26T09:36:34.304+00:00,1149,83323,79105.99757504434,69943.10110129131,171761.10854877337,122813.20218005206,115171.45367520496,104622.32436207823,143067.03425252845,127623.27523508968,TASK2
2026-05-26T09:36:34.304+00:00,1149,83324,79109.48444717938,69950.87950836174,171764.3271999749,122815.07972658631,115175.74521014038,104626.88411794712,143068.91179906268,127627.83499095857,TASK2
2026-05-26T09:36:34.304+00:00,1149,83325,79112.70309838094,69948.26435426048,171766.47296744262,122812.7327934185,115179.50030320887,104629.56632728175,143066.83308682835,127628.37143282549,TASK2
2026-05-26T09:36:34.304+00:00,1149,83326,79108.27745297879,69950.34306649482,171763.72370287462,122814.20800855255,115182.1825125435,104632.04737091629,143068.24124672904,127635.54634279564,TASK2
2026-05-26T09:36:34.304+00:00,1149,83327,79100.83432207517,69955.97570609755,171764.26014474157,122817.96310162105,115185.937605612,104633.3884755836,143069.31413046288,127642.25186613224,TASK2
2026-05-26T09:36:34.304+00:00,1149,83328,79111.56315941371,69957.04858983141,171768.55167967698,122818.23132255451,115191.30202428126,104635.53424305131,143065.89431356124,127633.4676305613,TASK2
2026-05-26T09:36:34.304+00:00,1149,83329,79118.00046181685,69956.31098226439,171773.6478774128,122816.42083125364,115195.32533828322,104637.1435686521,143067.23541822855,127628.97492992578,TASK2
2026-05-26T09:36:34.304+00:00,1149,83330,79111.09377278015,69955.03693283044,171777.4029704813,122819.10304058826,115201.49441975288,104641.16688265406,143080.37824396827,127640.77665099819,TASK2
2026-05-26T09:36:34.304+00:00,1149,83331,79117.79929611675,69953.76288339648,171777.67119141473,122821.24880805597,115203.90840815406,104644.92197572255,143094.32573250838,127653.91947673791,TASK2
2026-05-26T09:36:34.304+00:00,1149,83332,79121.01794731831,69963.41883700117,171778.7440751486,122825.00390112447,115205.51773375484,104651.09105719221,143099.4219302442,127654.99236047176,TASK2
2026-05-26T09:36:34.304+00:00,1149,83333,79121.01794731831,69969.05147660391,171779.01229608204,122828.75899419296,115207.66350122255,104653.23682465992,143105.3227907804,127657.40634887293,TASK2
2026-05-26T09:36:34.304+00:00,1149,83334,79120.28033975129,69968.3138690369,171781.96272635015,122831.17298259413,115214.10080362568,104655.11437119417,143111.76009318352,127664.64831407645,TASK2
2026-05-26T09:36:34.304+00:00,1149,83335,79125.10831655363,69968.58208997035,171788.66824968674,122834.65985472917,115220.5381060288,104657.52835959534,143118.19739558664,127671.08561647958,TASK2
2026-05-26T09:36:34.304+00:00,1149,83336,79129.39985148906,69969.38675277075,171790.545796221,122840.02427339843,115217.92295192754,104663.16099919808,143121.41604678822,127672.15850021344,TASK2
2026-05-26T09:36:34.304+00:00,1149,83337,79130.74095615637,69969.18558707065,171792.95978462216,122843.77936646693,115218.45939379446,104667.18431320004,143121.95248865514,127674.03604674769,TASK2
2026-05-26T09:36:34.304+00:00,1149,83338,79130.27156952281,69972.67245920567,171795.64199395681,122848.07090140235,115220.60516126217,104669.86652253466,143123.025372389,127676.98647701579,TASK2
2026-05-26T09:36:34.304+00:00,1149,83339,79127.11997355461,69978.30509880841,171795.17260732324,122851.02133167045,115223.55559153027,104670.93940626852,143123.29359332245,127678.59580261656,TASK2
2026-05-26T09:36:34.304+00:00,1149,83340,79127.65641542153,69986.08350587885,171796.51371199056,122850.55194503689,115226.50602179837,104673.3533946697,143127.58512825787,127682.0826747516,TASK2
2026-05-26T09:36:34.304+00:00,1149,83341,79131.67972942349,69982.12724711027,171797.58659572442,122852.96593343806,115233.47976606843,104675.4991621374,143130.80377945944,127686.10598875355,TASK2
2026-05-26T09:36:34.304+00:00,1149,83342,79135.70304342544,69975.48877900704,171801.07346785945,122856.18458463962,115241.7946150058,104677.1084877382,143130.33439282587,127686.91065155393,TASK2
2026-05-26T09:36:34.304+00:00,1149,83343,79137.84881089315,69970.72785743806,171808.0472121295,122858.86679397426,115246.08614994123,104676.63910110462,143131.13905562626,127685.36838118652,TASK2
2026-05-26T09:36:34.304+00:00,1149,83344,79142.6767876955,69978.23804357504,171810.72942146414,122860.47611957505,115246.35437087469,104674.82860980375,143131.94371842666,127684.36255268603,TASK2
2026-05-26T09:36:34.304+00:00,1149,83345,79142.94500862896,69982.52957851047,171808.91893016326,122861.01256144197,115245.3485423742,104675.36505167067,143131.74255272656,127685.43543641988,TASK2
2026-05-26T09:36:34.304+00:00,1149,83346,79141.13451732809,69986.01645064549,171809.45537203018,122861.01256144197,115245.61676330767,104674.89566503711,143132.27899459348,127688.65408762146,TASK2
2026-05-26T09:36:34.304+00:00,1149,83347,79139.3240260272,69990.3079855809,171808.18132259624,122861.28078237543,115248.03075170884,104676.23676970442,143132.0778288934,127688.92230855492,TASK2
2026-05-26T09:36:34.304+00:00,1149,83348,79142.00623536184,69991.64909024823,171809.25420633008,122863.42654984313,115246.48848134142,104675.4991621374,143130.80377945944,127687.11181725403,TASK2
2026-05-26T09:36:34.304+00:00,1149,83349,79141.53684872828,69991.17970361466,171815.6915087332,122866.37698011124,115247.02492320834,104676.3038249378,143133.48598879407,127687.64825912096,TASK2
2026-05-26T09:36:34.304+00:00,1149,83350,79141.53684872828,69989.36921231379,171817.300834334,122870.13207317973,115248.36602787566,104678.18137147205,143135.63175626178,127684.49666315276,TASK2
2026-05-26T09:36:34.304+00:00,1149,83351,79141.26862779482,69988.3633838133,171814.68568023274,122873.75305578149,115249.64007730961,104680.52830463985,143142.8737214653,127689.12347425502,TASK2
2026-05-26T09:36:34.304+00:00,1149,83352,79138.921694627,69991.85025594833,171813.1434098653,122873.75305578149,115249.17069067605,104681.06474650677,143147.70169826766,127691.26924172272,TASK2
2026-05-26T09:36:34.304+00:00,1149,83353,79140.53102022779,69993.99602341604,171815.55739826648,122876.16704418267,115250.2435744099,104681.33296744023,143147.23231163408,127691.53746265618,TASK2
2026-05-26T09:36:34.304+00:00,1149,83354,79144.8225551632,69992.72197398209,171817.43494480074,122877.23992791653,115254.26688841186,104683.21051397448,143150.1827419022,127693.41500919043,TASK2
2026-05-26T09:36:34.304+00:00,1149,83355,79149.11409009864,69993.79485771594,171821.72647973616,122878.31281165038,115259.63130708114,104683.47873490796,143156.35182337186,127702.80274186165,TASK2
2026-05-26T09:36:34.304+00:00,1149,83356,79151.5280784998,69987.69283147964,171823.06758440347,122878.58103258384,115262.58173734925,104682.74112734092,143168.42176537772,127717.82311413562,TASK2
2026-05-26T09:36:34.304+00:00,1149,83357,79149.44936626546,69985.07767737837,171826.28623560502,122879.38569538423,115267.14149321812,104683.00934827438,143178.61416084933,127722.65109093797,TASK2
2026-05-26T09:36:34.304+00:00,1149,83358,79148.71175869844,69987.759886713,171828.96844493967,122877.84342501682,115264.52633911686,104680.66241510658,143175.46256488113,127718.96305310285,TASK2
2026-05-26T09:36:34.304+00:00,1149,83359,79145.29194179678,69990.44209604764,171826.3532908384,122879.18452968413,115259.49719661441,104679.92480753956,143170.70164331218,127718.49366646928,TASK2
2026-05-26T09:36:34.304+00:00,1149,83360,79145.29194179678,69990.97853791458,171826.3532908384,122887.76759955497,115261.64296408212,104683.41167967458,143173.65207358028,127723.32164327163,TASK2
2026-05-26T09:36:34.304+00:00,1149,83361,79142.14034582858,69985.94939541213,171825.07924140446,122893.66846009117,115258.75958904739,104686.09388900922,143174.72495731412,127722.58403570461,TASK2
2026-05-26T09:36:34.304+00:00,1149,83362,79137.91586612652,69989.43626754715,171820.31831983547,122897.95999502658,115257.21731867996,104688.23965647693,143169.4275938782,127720.2371025368,TASK2
2026-05-26T09:36:34.304+00:00,1149,83363,79142.20740106194,70000.9697676861,171820.11715413537,122904.12907649626,115266.6050513512,104694.94517981353,143168.15354444427,127717.35372750206,TASK2
2026-05-26T09:36:34.304+00:00,1149,83364,79143.2802847958,70010.62572129078,171820.38537506884,122899.09993399381,115267.94615601852,104696.82272634777,143166.8794950103,127712.86102686655,TASK2
2026-05-26T09:36:34.304+00:00,1149,83365,79143.54850572925,70013.57615155888,171819.11132563488,122894.87545429176,115259.96658324797,104695.54867691382,143163.45967810866,127714.47035246732,TASK2
2026-05-26T09:36:34.304+00:00,1149,83366,79145.4260522635,70013.84437249234,171816.76439246707,122895.41189615868,115261.3076879153,104694.54284841333,143163.7278990421,127720.90765487046,TASK2
2026-05-26T09:36:34.304+00:00,1149,83367,79147.03537786429,70014.9172562262,171816.56322676697,122898.63054736026,115265.33100191725,104694.34168271323,143166.41010837676,127727.34495727358,TASK2
2026-05-26T09:36:34.304+00:00,1149,83368,79146.83421216419,70014.9172562262,171816.36206106687,122897.62471885976,115267.20854845148,104695.14634551363,143166.20894267666,127723.65691943846,TASK2
2026-05-26T09:36:34.304+00:00,1149,83369,79147.63887496458,70014.44786959264,171819.8489332019,122898.42938166016,115270.42719965306,104695.68278738055,143169.15937294476,127721.30998627066,TASK2
2026-05-26T09:36:34.304+00:00,1149,83370,79147.16948833101,70008.07762242288,171818.8431047014,122896.88711129273,115270.69542058652,104695.951008314,143170.76869854552,127726.40618400647,TASK2
2026-05-26T09:36:34.304+00:00,1149,83371,79147.70593019795,70002.24381712005,171817.03261340054,122895.07661999186,115272.03652525383,104696.21922924748,143173.1826869467,127729.35661427457,TASK2
2026-05-26T09:36:34.304+00:00,1149,83372,79155.21611633492,70002.24381712005,171817.56905526746,122895.07661999186,115274.45051365501,104694.4087379466,143177.47422188212,127731.2341608088,TASK2
2026-05-26T09:36:34.304+00:00,1149,83373,79158.4347675365,69999.89688395224,171821.05592740249,122893.53434962445,115277.13272298964,104692.59824664572,143180.42465215022,127732.57526547613,TASK2
2026-05-26T09:36:34.304+00:00,1149,83374,79156.08783436868,70004.99308168805,171824.27457860406,122893.8025705579,115278.74204859043,104691.32419721177,143186.05729175295,127734.9892538773,TASK2
2026-05-26T09:36:34.304+00:00,1149,83375,79157.428939036,70008.47995382307,171825.61568327138,122889.57809085585,115282.76536259238,104687.9043803101,143184.783242319,127734.51986724374,TASK2
2026-05-26T09:36:34.304+00:00,1149,83376,79160.11114837063,70006.40124158873,171825.61568327138,122885.62183208726,115284.91113006009,104688.97726404396,143181.6316463508,127736.39741377799,TASK2
2026-05-26T09:36:34.616+00:00,1150,83377,79158.0324361363,70006.20007588863,171824.60985477088,122887.23115768805,115283.9053015596,104691.65947337859,143182.4363091512,127737.47029751184,TASK2
2026-05-26T09:36:34.616+00:00,1150,83378,79158.0324361363,70011.63154979127,171826.08506990492,122895.0095647585,115288.06272602829,104696.5545054143,143187.26428595354,127741.62772198053,TASK2
2026-05-26T09:36:34.616+00:00,1150,83379,79159.64176173708,70013.77731725898,171827.1579536388,122899.83754156083,115287.8615603282,104702.72358688396,143193.16514648974,127747.7968034502,TASK2
2026-05-26T09:36:34.616+00:00,1150,83380,79159.44059603698,70015.38664285977,171828.4990583061,122902.78797182893,115286.58751089424,104705.13757528515,143196.65201862477,127752.08833838561,TASK2
2026-05-26T09:36:34.616+00:00,1150,83381,79158.70298846996,70012.50326782503,171825.88390420482,122904.66551836318,115285.84990332721,104705.4057962186,143195.91441105775,127753.16122211947,TASK2
2026-05-26T09:36:34.616+00:00,1150,83382,79158.70298846996,70011.49743932454,171826.1521251383,122911.1028207663,115288.53211266185,104705.94223808554,143198.59662039237,127753.42944305293,TASK2
2026-05-26T09:36:34.616+00:00,1150,83383,79158.97120940342,70010.22338989058,171826.42034607177,122914.8579138348,115289.87321732916,104705.2046305185,143201.54705066048,127751.61895175205,TASK2
2026-05-26T09:36:34.616+00:00,1150,83384,79160.04409313727,70018.2700178945,171828.297892606,122917.8083441029,115292.28720573035,104708.42328172007,143204.22925999513,127755.64226575401,TASK2
2026-05-26T09:36:34.616+00:00,1150,83385,79164.06740713923,70026.85308776534,171829.1025554064,122916.26607373549,115295.77407786537,104709.49616545392,143208.52079493055,127764.4935565583,TASK2
2026-05-26T09:36:34.616+00:00,1150,83386,79165.40851180654,70031.14462270075,171827.82850597246,122916.53429466895,115300.60205466772,104712.7148166555,143209.86189959786,127764.4935565583,TASK2
2026-05-26T09:36:34.616+00:00,1150,83387,79168.89538394158,70029.8705732668,171829.97427344017,122917.33895746934,115303.55248493582,104714.32414225627,143213.88521359983,127765.2982193587,TASK2
2026-05-26T09:36:34.616+00:00,1150,83388,79167.08489264069,70028.59652383285,171835.33869210942,122918.68006213666,115310.25800827242,104717.27457252437,143217.6403066683,127765.83466122563,TASK2
2026-05-26T09:36:34.616+00:00,1150,83389,79168.42599730802,70030.20584943364,171838.557343311,122921.89871333822,115313.74488040744,104718.88389812516,143222.7365044041,127767.98042869334,TASK2
2026-05-26T09:36:34.616+00:00,1150,83390,79175.66796251154,70032.08339596787,171839.63022704484,122926.19024827365,115310.8615053727,104722.90721212712,143224.3458300049,127772.00374269529,TASK2
2026-05-26T09:36:34.616+00:00,1150,83391,79174.66213401104,70031.34578840085,171837.28329387703,122927.79957387442,115312.20261004003,104725.05297959482,143224.88227187181,127770.1932513944,TASK2
2026-05-26T09:36:34.616+00:00,1150,83392,79172.04697990978,70026.85308776534,171832.2541513746,122924.64797790622,115309.31923500529,104725.32120052828,143223.60822243788,127769.18742289393,TASK2
2026-05-26T09:36:34.616+00:00,1150,83393,79172.5834217767,70023.43327086368,171834.66813977578,122926.52552444047,115307.50874370441,104725.12003482819,143225.75398990558,127772.40607409549,TASK2
2026-05-26T09:36:34.616+00:00,1150,83394,79171.30937234274,70024.774375531,171834.66813977578,122928.93951284165,115308.84984837173,104723.30954352731,143221.52951020355,127770.5955827946,TASK2
2026-05-26T09:36:34.616+00:00,1150,83395,79168.69421824148,70023.7685470305,171832.8576484749,122926.8608006073,115310.72739490597,104722.30371502682,143221.797731137,127768.78509149373,TASK2
2026-05-26T09:36:34.616+00:00,1150,83396,79166.61550600713,70023.7685470305,171828.63316877282,122922.63632090525,115311.80027863983,104718.88389812516,143218.37791423535,127764.02416992474,TASK2
2026-05-26T09:36:34.616+00:00,1150,83397,79166.41434030703,70026.45075636514,171824.67691000426,122919.48472493705,115308.1122408047,104716.00052309042,143212.27588799904,127762.48189955733,TASK2
2026-05-26T09:36:34.616+00:00,1150,83398,79171.24231710938,70025.71314879811,171823.4028605703,122919.01533830349,115304.96064483651,104715.2629155234,143205.36919896235,127755.84343145411,TASK2
2026-05-26T09:36:34.616+00:00,1150,83399,79172.5834217767,70023.90265749724,171826.3532908384,122918.009509803,115303.41837446908,104714.25708702291,143202.48582392762,127751.61895175205,TASK2
2026-05-26T09:36:34.616+00:00,1150,83400,79172.3822560766,70024.70732029763,171829.8401629734,122916.73546036905,115303.41837446908,104712.98303758896,143200.94355356018,127749.27201858425,TASK2
2026-05-26T09:36:34.616+00:00,1150,83401,79168.15777637454,70025.51198309801,171830.6448257738,122912.510980667,115304.49125820294,104711.44076722155,143200.7423878601,127750.88134418502,TASK2
2026-05-26T09:36:34.616+00:00,1150,83402,79169.49888104187,70025.31081739793,171828.56611353948,122910.43226843265,115304.29009250284,104712.78187188886,143197.85901282536,127754.90465818698,TASK2
2026-05-26T09:36:34.616+00:00,1150,83403,79169.29771534177,70025.10965169783,171825.9509594382,122910.43226843265,115306.16763903708,104717.87806962467,143197.65784712526,127758.39153032201,TASK2
2026-05-26T09:36:34.616+00:00,1150,83404,79169.8341572087,70026.98719823206,171829.97427344017,122910.23110273255,115309.11806930519,104725.92469762858,143200.07183552644,127761.87840245703,TASK2
2026-05-26T09:36:34.616+00:00,1150,83405,79173.58925027719,70029.40118663324,171832.38826184132,122912.37687020026,115313.94604610754,104728.07046509629,143202.21760299415,127766.97460019284,TASK2
2026-05-26T09:36:34.616+00:00,1150,83406,79173.38808457709,70029.40118663324,171830.309549607,122912.37687020026,115315.82359264178,104732.89844189864,143199.60244889287,127763.01834142425,TASK2
2026-05-26T09:36:34.616+00:00,1150,83407,79173.38808457709,70031.54695410095,171828.23083737266,122912.17570450017,115317.1646973091,104736.38531403366,143201.74821636057,127766.50521355929,TASK2
2026-05-26T09:36:34.616+00:00,1150,83408,79173.38808457709,70033.69272156866,171830.6448257738,122913.24858823403,115317.70113917603,104742.28617456986,143207.91729783025,127779.11159743207,TASK2
2026-05-26T09:36:34.616+00:00,1150,83409,79173.38808457709,70033.69272156866,171834.53402930903,122916.06490803539,115322.52911597837,104748.18703510606,143210.80067286498,127780.78797826622,TASK2
2026-05-26T09:36:34.616+00:00,1150,83410,79168.09072114118,70037.44781463715,171830.8459914739,122914.2544167345,115321.25506654441,104750.60102350723,143208.18551876373,127781.0561991997,TASK2
2026-05-26T09:36:34.616+00:00,1150,83411,79165.47556703992,70042.54401237298,171829.3037211065,122911.9074835667,115323.40083401214,104754.35611657573,143208.45373969717,127781.59264106661,TASK2
2026-05-26T09:36:34.616+00:00,1150,83412,79168.15777637454,70041.26996293903,171828.83433447292,122906.34189919733,115324.47371774599,104754.62433750919,143205.30214372897,127773.61306829606,TASK2
2026-05-26T09:36:34.616+00:00,1150,83413,79165.27440133982,70042.07462573942,171830.17543914026,122905.6042916303,115323.19966831204,104754.15495087563,143206.64324839629,127775.49061483031,TASK2
2026-05-26T09:36:34.616+00:00,1150,83414,79166.61550600713,70038.11836697083,171832.58942754142,122907.48183816455,115326.95476138052,104754.15495087563,143205.36919896235,127772.87546072905,TASK2
2026-05-26T09:36:34.616+00:00,1150,83415,79167.15194787407,70027.7248057991,171835.808078743,122908.01828003148,115330.1734125821,104756.30071834334,143205.16803326225,127775.28944913021,TASK2
2026-05-26T09:36:34.616+00:00,1150,83416,79164.00035190587,70021.89100049625,171837.68562527723,122906.47600966407,115323.80316541232,104759.25114861144,143201.47999542713,127769.45564382739,TASK2
2026-05-26T09:36:34.616+00:00,1150,83417,79159.50765127035,70032.08339596787,171835.33869210942,122900.1057624943,115320.65156944413,104756.90421544363,143199.13306225932,127764.15828039148,TASK2
2026-05-26T09:36:34.616+00:00,1150,83418,79161.38519780459,70040.93468677219,171831.11421240738,122898.02705025996,115316.1588688086,104756.90421544363,143198.39545469228,127764.42650132494,TASK2
2026-05-26T09:36:34.616+00:00,1150,83419,79162.72630247191,70038.85597453784,171829.57194203997,122900.70925959459,115313.8119356408,104758.78176197788,143198.39545469228,127765.76760599225,TASK2
2026-05-26T09:36:34.616+00:00,1150,83420,79163.79918620577,70034.09505296886,171828.83433447292,122900.97748052806,115311.46500247299,104760.65930851213,143196.58496339142,127765.2982193587,TASK2
2026-05-26T09:36:34.616+00:00,1150,83421,79159.84292743717,70030.94345700066,171828.63316877282,122896.48477989253,115306.43585997054,104759.11703814472,143187.80072782046,127757.85508845508,TASK2
2026-05-26T09:36:34.616+00:00,1150,83422,79155.8866686686,70034.96677100261,171827.0908984054,122895.47895139206,115306.23469427046,104759.65348001164,143184.91735278573,127753.0941668861,TASK2
2026-05-26T09:36:34.616+00:00,1150,83423,79157.49599426937,70037.64898033725,171826.08506990492,122897.62471885976,115309.45334547202,104760.45814281203,143187.5995621204,127754.70349248688,TASK2
2026-05-26T09:36:34.616+00:00,1150,83424,79167.15194787407,70036.91137277022,171827.42617457226,122900.84337006132,115315.35420600823,104763.94501494705,143193.76864359004,127758.45858555537,TASK2
2026-05-26T09:36:34.616+00:00,1150,83425,79167.15194787407,70035.36910240281,171826.1521251383,122902.18447472864,115316.69531067554,104763.94501494705,143187.3983964203,127753.42944305293,TASK2
2026-05-26T09:36:34.616+00:00,1150,83426,79159.70881697045,70031.14462270075,171825.1462966378,122902.18447472864,115315.9577031085,104762.40274457964,143183.97857951862,127750.5460680182,TASK2
2026-05-26T09:36:34.616+00:00,1150,83427,79158.70298846996,70028.79768953295,171823.06758440347,122901.44686716162,115316.49414497544,104758.71470674452,143187.46545165364,127753.22827735283,TASK2
2026-05-26T09:36:34.616+00:00,1150,83428,79159.50765127035,70029.33413139988,171820.72065123566,122898.29527119342,115318.37169150969,104760.32403234529,143187.26428595354,127755.37404482054,TASK2
2026-05-26T09:36:34.616+00:00,1150,83429,79161.65341873806,70036.5760966034,171824.2075233707,122900.17281772767,115318.37169150969,104764.07912541379,143186.79489932,127756.98337042132,TASK2
2026-05-26T09:36:34.616+00:00,1150,83430,79159.77587220381,70042.8792885398,171821.1900378692,122899.56932062737,115314.14721180763,104764.54851204735,143186.32551268642,127752.08833838561,TASK2
2026-05-26T09:36:34.616+00:00,1150,83431,79160.5805350042,70043.14750947327,171814.551569766,122898.02705025996,115307.77696463787,104763.54268354685,143181.56459111744,127739.54900974619,TASK2
2026-05-26T09:36:34.616+00:00,1150,83432,79161.38519780459,70043.95217227365,171811.66819473126,122898.29527119342,115304.08892680274,104764.34734634725,143178.1447742158,127738.00673937876,TASK2
2026-05-26T09:36:34.616+00:00,1150,83433,79163.26274433883,70043.95217227365,171813.5457412655,122901.24570146152,115305.96647333699,104763.87795971369,143177.1389457153,127739.34784404609,TASK2
2026-05-26T09:36:34.616+00:00,1150,83434,79161.1840321045,70041.87346003932,171815.95972966668,122904.46435266308,115307.57579893777,104761.79924747934,143170.50047761208,127737.00091087828,TASK2
2026-05-26T09:36:34.616+00:00,1150,83435,79164.40268330606,70037.11253847032,171813.88101743234,122902.65386136221,115308.1122408047,104758.37943057768,143166.81243977693,127735.45864051086,TASK2
2026-05-26T09:36:34.616+00:00,1150,83436,79167.08489264069,70035.83848903637,171813.67985173225,122899.77048632747,115311.0626710728,104756.5689392768,143170.8357537789,127738.94551264589,TASK2
2026-05-26T09:36:34.616+00:00,1150,83437,79167.35311357417,70030.80934653392,171815.02095639956,122897.1553322262,115311.0626710728,104756.09955264324,143171.6404165793,127741.0912801136,TASK2
2026-05-26T09:36:34.616+00:00,1150,83438,79163.9332966725,70027.1213086988,171817.43494480074,122896.68594559263,115308.98395883846,104752.41151480812,143166.8794950103,127734.1845910769,TASK2
2026-05-26T09:36:34.616+00:00,1150,83439,79160.51347977083,70026.1154801983,171815.08801163294,122896.48477989253,115308.51457220489,104751.94212817456,143165.8736665098,127729.96011137485,TASK2
2026-05-26T09:36:34.616+00:00,1150,83440,79162.92746817201,70029.8705732668,171812.7410784651,122898.36232642678,115309.31923500529,104753.55145377533,143168.287654911,127729.49072474129,TASK2
2026-05-26T09:36:34.616+00:00,1150,83441,79169.6329915086,70029.6694075667,171809.05304062998,122901.58097762836,115315.48831647495,104754.62433750919,143167.01360547703,127729.02133810773,TASK2
2026-05-26T09:36:34.616+00:00,1150,83442,79166.21317460694,70030.74229130056,171806.97432839565,122903.72674509606,115315.75653740841,104754.89255844266,143162.5209048415,127725.33330027261,TASK2
2026-05-26T09:36:34.616+00:00,1150,83443,79163.86624143913,70036.10670996983,171808.31543306296,122905.06784976338,115310.99561583943,104755.16077937612,143161.24685540757,127716.81728563513,TASK2
2026-05-26T09:36:34.616+00:00,1150,83444,79167.35311357417,70039.86180303834,171813.1434098653,122907.21361723109,115311.80027863983,104754.15495087563,143162.5879600749,127716.81728563513,TASK2
2026-05-26T09:36:34.616+00:00,1150,83445,79166.88372694059,70045.49444264108,171814.48451453264,122905.40312593021,115312.06849957329,104754.15495087563,143162.5879600749,127720.84059963709,TASK2
2026-05-26T09:36:34.616+00:00,1150,83446,79166.88372694059,70045.29327694098,171811.06469763097,122903.59263462933,115314.75070890793,104753.41734330861,143161.04568970748,127719.83477113661,TASK2
2026-05-26T09:36:34.616+00:00,1150,83447,79171.44348280948,70039.45947163814,171804.96267139466,122903.39146892923,115315.28715077485,104752.67973574158,143160.30808214046,127717.21961703533,TASK2
2026-05-26T09:36:34.616+00:00,1150,83448,79166.95078217397,70035.23499193607,171806.84021792893,122905.26901546348,115316.89647637564,104751.40568630763,143159.5704745734,127715.94556760137,TASK2
2026-05-26T09:36:34.616+00:00,1150,83449,79167.48722404089,70026.98719823206,171807.10843886237,122909.29232946543,115318.23758104295,104751.20452060753,143160.3751373738,127715.74440190128,TASK2
2026-05-26T09:36:34.616+00:00,1150,83450,79168.29188684128,70023.29916039694,171805.29794756148,122908.82294283187,115316.42708974208,104751.74096247446,143158.8328670064,127713.66568966694,TASK2
2026-05-26T09:36:34.616+00:00,1150,83451,79170.16943337553,70039.66063733824,171806.90727316227,122909.09116376533,115321.52328747789,104755.76427647642,143162.85618100836,127715.81145713465,TASK2
2026-05-26T09:36:34.933+00:00,1151,83452,79170.43765430899,70048.24370720908,171806.90727316227,122910.96871029958,115325.8148224133,104756.5689392768,143164.46550660912,127718.49366646928,TASK2
2026-05-26T09:36:34.933+00:00,1151,83453,79168.89538394158,70044.55566937395,171808.2483778296,122910.96871029958,115325.8148224133,104756.09955264324,143166.0748322099,127723.85808513856,TASK2
2026-05-26T09:36:34.933+00:00,1151,83454,79170.77293047582,70041.13585247229,171810.66236623077,122909.69466086563,115326.88770614716,104756.90421544363,143163.99611997558,127723.85808513856,TASK2
2026-05-26T09:36:34.933+00:00,1151,83455,79172.9857531769,70038.58775360438,171815.4903430331,122913.78503010095,115329.10052884823,104758.64765151114,143165.1360589428,127724.32747177212,TASK2
2026-05-26T09:36:34.933+00:00,1151,83456,79171.71170374294,70037.04548323696,171816.02678490005,122917.8083441029,115328.36292128121,104755.76427647642,143167.81826827742,127727.54612297368,TASK2
2026-05-26T09:36:34.933+00:00,1151,83457,79175.19857587798,70035.771433803,171811.80230519798,122920.758774371,115326.8206509138,104755.02666890938,143167.34888164388,127727.34495727358,TASK2
2026-05-26T09:36:34.933+00:00,1151,83458,79171.77875897632,70037.64898033725,171810.7964766975,122919.75294587051,115320.98684561095,104750.80218920733,143164.46550660912,127724.46158223886,TASK2
2026-05-26T09:36:34.933+00:00,1151,83459,79175.5338520448,70037.1795937037,171814.551569766,122920.02116680398,115317.83524964275,104750.06458164031,143163.7278990421,127718.89599786948,TASK2
2026-05-26T09:36:34.933+00:00,1151,83460,79177.14317764559,70038.78891930448,171813.81396219897,122920.5576086709,115319.712796177,104749.05875313982,143164.80078277597,127719.16421880295,TASK2
2026-05-26T09:36:34.933+00:00,1151,83461,79173.72336074393,70041.47112863912,171811.1988080977,122919.28355923695,115319.5116304769,104748.3211455728,143165.3372246429,127719.70066066987,TASK2
2026-05-26T09:36:34.933+00:00,1151,83462,79171.37642757612,70043.61689610683,171811.46702903116,122918.009509803,115316.3600345087,104748.85758743972,143164.86783800932,127715.20796003436,TASK2
2026-05-26T09:36:34.933+00:00,1151,83463,79170.63882000909,70042.8792885398,171810.72942146414,122915.6625766352,115319.57868571028,104749.39402930666,143162.25268390807,127715.00679433426,TASK2
2026-05-26T09:36:34.933+00:00,1151,83464,79174.39391307758,70041.06879723893,171812.60696799838,122915.6625766352,115321.45623224451,104748.65642173962,143160.71041354066,127717.6890036689,TASK2
2026-05-26T09:36:34.933+00:00,1151,83465,79174.39391307758,70039.79474780498,171811.33291856444,122918.34478596984,115320.7186246775,104750.53396827387,143159.1681431732,127715.34207050108,TASK2
2026-05-26T09:36:34.933+00:00,1151,83466,79174.19274737748,70041.13585247229,171809.79064819703,122916.80251560241,115319.44457524354,104749.79636070685,143152.79789600347,127710.31292799865,TASK2
2026-05-26T09:36:34.933+00:00,1151,83467,79174.7291892444,70038.52069837102,171806.90727316227,122910.16404749919,115313.87899087417,104746.10832287172,143142.40433483175,127705.2837854962,TASK2
2026-05-26T09:36:34.933+00:00,1151,83468,79174.99741017788,70034.56443960241,171808.51659876306,122907.81711433138,115317.63408394266,104743.22494783699,143140.05740166394,127699.44998019337,TASK2
2026-05-26T09:36:34.933+00:00,1151,83469,79168.62716300812,70024.43909936416,171809.58948249693,122906.81128583089,115316.09181357524,104743.49316877045,143143.81249473244,127697.10304702555,TASK2
2026-05-26T09:36:34.933+00:00,1151,83470,79166.28022984031,70025.24376216455,171808.31543306296,122905.26901546348,115308.38046173817,104743.49316877045,143143.61132903234,127699.24881449327,TASK2
2026-05-26T09:36:34.933+00:00,1151,83471,79168.96243917494,70031.41284363421,171804.8956161613,122902.38564042874,115310.79445013934,104743.29200307035,143139.65507026375,127696.36543945853,TASK2
2026-05-26T09:36:34.933+00:00,1151,83472,79163.9332966725,70027.99302673255,171803.08512486043,122902.18447472864,115313.2084385405,104745.1695496046,143138.38102082978,127694.55494815765,TASK2
2026-05-26T09:36:34.933+00:00,1151,83473,79164.73795947288,70035.23499193607,171804.42622952774,122903.52557939597,115314.28132227437,104745.43777053806,143137.64341326276,127701.26047149424,TASK2
2026-05-26T09:36:34.933+00:00,1151,83474,79165.81084320674,70044.89094554078,171806.30377606198,122905.40312593021,115315.62242694169,104745.70599147152,143136.63758476227,127706.89311109699,TASK2
2026-05-26T09:36:34.933+00:00,1151,83475,79167.95661067445,70040.39824490527,171809.25420633008,122906.47600966407,115317.7681944094,104747.85175893923,143137.97868942958,127706.69194539689,TASK2
2026-05-26T09:36:34.933+00:00,1151,83476,79166.6825612405,70036.1737652032,171806.63905222883,122906.0066230305,115313.27549377388,104742.8226164368,143137.50930279604,127704.34501222908,TASK2
2026-05-26T09:36:34.933+00:00,1151,83477,79164.60384900616,70033.29039016846,171800.53702599253,122903.12324799577,115312.00144433993,104736.98881113395,143133.28482309397,127702.5345209282,TASK2
2026-05-26T09:36:34.933+00:00,1151,83478,79165.40851180654,70035.43615763617,171796.58076722393,122902.65386136221,115314.14721180763,104736.5194245004,143128.25568059154,127698.04182029268,TASK2
2026-05-26T09:36:34.933+00:00,1151,83479,79161.98869490488,70036.7772623035,171793.42917125573,122904.26318696298,115311.80027863983,104737.86052916771,143127.24985209104,127698.31004122614,TASK2
2026-05-26T09:36:34.933+00:00,1151,83480,79158.83709893668,70035.23499193607,171791.88690088832,122905.6042916303,115310.25800827242,104738.39697103464,143126.24402359055,127700.99225056078,TASK2
2026-05-26T09:36:34.933+00:00,1151,83481,79161.25108733786,70035.50321286955,171789.27174678704,122902.72091659557,115313.47665947398,104738.19580533454,143125.774636957,127702.60157616156,TASK2
2026-05-26T09:36:34.933+00:00,1151,83482,79166.28022984031,70039.32536117142,171788.86941538684,122902.25152996201,115319.9139618771,104741.48151176947,143131.60844225984,127704.41206746244,TASK2
2026-05-26T09:36:34.933+00:00,1151,83483,79168.96243917494,70035.10088146935,171790.47874098763,122907.61594863128,115322.32795027827,104744.9683839045,143136.97286092912,127706.82605586361,TASK2
2026-05-26T09:36:34.933+00:00,1151,83484,79163.39685480557,70034.89971576925,171792.62450845534,122908.68883236514,115323.13261307866,104747.11415137221,143140.19151213067,127707.36249773054,TASK2
2026-05-26T09:36:34.933+00:00,1151,83485,79165.81084320674,70035.43615763617,171793.42917125573,122908.48766666504,115325.54660147984,104748.45525603952,143142.06905866493,127706.62489016351,TASK2
2026-05-26T09:36:34.933+00:00,1151,83486,79172.51636654334,70033.89388726876,171792.15512182176,122910.63343413275,115330.37457828218,104750.8692444407,143145.8241517334,127710.64820416547,TASK2
2026-05-26T09:36:34.933+00:00,1151,83487,79170.70587524245,70038.99008500458,171794.83733115642,122910.16404749919,115330.1734125821,104752.74679097494,143146.89703546726,127714.67151816742,TASK2
2026-05-26T09:36:34.933+00:00,1151,83488,79166.74961647387,70038.25247743756,171794.83733115642,122911.77337309998,115320.85273514423,104750.93629967407,143144.28188136598,127713.9339106004,TASK2
2026-05-26T09:36:34.933+00:00,1151,83489,79166.74961647387,70038.52069837102,171791.95395612167,122916.60134990231,115324.0713863458,104752.00918340792,143141.66672726473,127714.47035246732,TASK2
2026-05-26T09:36:34.933+00:00,1151,83490,79167.55427927426,70038.52069837102,171790.1434648208,122917.13779176924,115326.75359568042,104751.80801770782,143141.66672726473,127716.07967806811,TASK2
2026-05-26T09:36:34.933+00:00,1151,83491,79167.55427927426,70036.44198613666,171788.6011944534,122915.86374233529,115326.0159881134,104750.26574734041,143140.12445689732,127714.80562863416,TASK2
2026-05-26T09:36:34.933+00:00,1151,83492,79165.74378797338,70031.14462270075,171786.7907031525,122915.6625766352,115324.20549681252,104749.25991883992,143140.39267783077,127714.06802106713,TASK2
2026-05-26T09:36:34.933+00:00,1151,83493,79167.88955544108,70034.36327390232,171788.93647062022,122919.68589063715,115325.27838054637,104748.5223112729,143142.80666623195,127714.06802106713,TASK2
2026-05-26T09:36:34.933+00:00,1151,83494,79164.73795947288,70041.06879723893,171791.3504590214,122922.36809997179,115328.22881081447,104748.79053220636,143139.92329119722,127709.30709949815,TASK2
2026-05-26T09:36:34.933+00:00,1151,83495,79160.7817007043,70045.09211124088,171790.61285145435,122922.63632090525,115328.7652526814,104750.93629967407,143138.38102082978,127706.42372446341,TASK2
2026-05-26T09:36:34.933+00:00,1151,83496,79164.26857283933,70047.23787870859,171788.8023601535,122922.63632090525,115328.5640869813,104751.74096247446,143141.06323016444,127703.54034942869,TASK2
2026-05-26T09:36:34.933+00:00,1151,83497,79169.6329915086,70044.62272460732,171786.9918688526,122924.5138674395,115331.24629631595,104750.73513397397,143142.94077669867,127708.36832623104,TASK2
2026-05-26T09:36:34.933+00:00,1151,83498,79172.85164271017,70035.03382623597,171789.9422991207,122927.4642977076,115333.12384285018,104749.46108454002,143145.08654416638,127714.26918676723,TASK2
2026-05-26T09:36:34.933+00:00,1151,83499,79172.3822560766,70035.03382623597,171793.42917125573,122927.73251864106,115332.65445621662,104749.72930547348,143144.34893659936,127714.26918676723,TASK2
2026-05-26T09:36:34.933+00:00,1151,83500,79168.96243917494,70038.78891930448,171793.22800555563,122925.38558547325,115331.9168486496,104748.99169790646,143140.66089876424,127715.07384956762,TASK2
2026-05-26T09:36:34.933+00:00,1151,83501,79163.9332966725,70038.58775360438,171790.3446305209,122925.38558547325,115330.91102014911,104750.8692444407,143141.73378249808,127720.17004730343,TASK2
2026-05-26T09:36:34.933+00:00,1151,83502,79164.20151760596,70039.39241640478,171790.1434648208,122926.99491107403,115328.83230791477,104751.13746537417,143146.0253174335,127720.70648917036,TASK2
2026-05-26T09:36:34.933+00:00,1151,83503,79163.7321309724,70043.41573040673,171791.48456948812,122928.60423667482,115326.48537474696,104749.05875313982,143146.8299802339,127721.24293103728,TASK2
2026-05-26T09:36:34.933+00:00,1151,83504,79163.53096527231,70042.14168097278,171789.9422991207,122927.33018724086,115321.72445317799,104745.90715717162,143145.55593079995,127719.70066066987,TASK2
2026-05-26T09:36:34.933+00:00,1151,83505,79164.60384900616,70040.86763153883,171789.47291248714,122924.98325407306,115320.7186246775,104744.09666587075,143144.81832323293,127715.20796003436,TASK2
2026-05-26T09:36:34.933+00:00,1151,83506,79162.79335770528,70043.28161994,171786.0530955855,122922.90454183871,115320.24923804394,104743.62727923717,143144.61715753283,127717.890169369,TASK2
2026-05-26T09:36:34.933+00:00,1151,83507,79166.01200890684,70049.1824804762,171785.31548801844,122924.5138674395,115324.80899391281,104745.50482577142,143145.15359939975,127718.15839030246,TASK2
2026-05-26T09:36:34.933+00:00,1151,83508,79170.57176477573,70046.56732637493,171788.26591828655,122924.78208837296,115329.10052884823,104743.96255540401,143150.24979713556,127717.6890036689,TASK2
2026-05-26T09:36:34.933+00:00,1151,83509,79170.10237814217,70040.46530013863,171788.26591828655,122922.43515520515,115323.80316541232,104741.07918036927,143150.78623900248,127716.68317516841,TASK2
2026-05-26T09:36:34.933+00:00,1151,83510,79171.44348280948,70043.14750947327,171788.8023601535,122924.3127017394,115322.52911597837,104742.4202850366,143152.9320064702,127724.19336130538,TASK2
2026-05-26T09:36:34.933+00:00,1151,83511,79170.97409617592,70042.94634377318,171789.07058108694,122928.06779480788,115322.79733691184,104745.63893623816,143152.19439890317,127722.91931187143,TASK2
2026-05-26T09:36:34.933+00:00,1151,83512,79168.35894207464,70038.45364313766,171789.33880202041,122927.0619663074,115317.7681944094,104740.60979373571,143148.50636106805,127716.01262283475,TASK2
2026-05-26T09:36:34.933+00:00,1151,83513,79167.01783740733,70042.94634377318,171791.08223808793,122928.26896050798,115320.65156944413,104739.00046813494,143146.56175930044,127715.40912573446,TASK2
2026-05-26T09:36:34.933+00:00,1151,83514,79166.54845077377,70044.55566937395,171789.5399677205,122928.26896050798,115322.52911597837,104740.07335186879,143145.55593079995,127717.2866722687,TASK2
2026-05-26T09:36:34.933+00:00,1151,83515,79168.42599730802,70051.26119271055,171789.07058108694,122932.02405357648,115324.94310437955,104743.29200307035,143146.89703546726,127718.09133506908,TASK2
2026-05-26T09:36:34.933+00:00,1151,83516,79166.07906414021,70050.52358514351,171786.45542698566,122936.04736757843,115326.0159881134,104747.31531707231,143147.96991920113,127718.35955600256,TASK2
2026-05-26T09:36:34.933+00:00,1151,83517,79165.34145657318,70047.37198917533,171784.37671475133,122935.04153907794,115327.62531371418,104748.1199798727,143151.45679133615,127722.11464907104,TASK2
2026-05-26T09:36:34.933+00:00,1151,83518,79173.11986364363,70047.90843104225,171787.32714501943,122936.38264374527,115331.11218584921,104750.26574734041,143151.99323320307,127722.11464907104,TASK2
2026-05-26T09:36:34.933+00:00,1151,83519,79175.26563111134,70047.70726534215,171789.7411334206,122938.79663214643,115335.13549985117,104749.52813977338,143151.5238465695,127721.91348337095,TASK2
2026-05-26T09:36:34.933+00:00,1151,83520,79173.99158167739,70048.24370720908,171789.5399677205,122940.67417868068,115334.39789228413,104749.52813977338,143152.59673030337,127725.9367973729,TASK2
2026-05-26T09:36:34.933+00:00,1151,83521,79172.44931130997,70046.96965777513,171785.8519298854,122939.40012924673,115333.66028471712,104750.06458164031,143152.59673030337,127725.73563167281,TASK2
2026-05-26T09:36:34.933+00:00,1151,83522,79171.44348280948,70038.99008500458,171783.2367757841,122939.40012924673,115333.45911901702,104746.10832287172,143146.49470406707,127719.90182636997,TASK2
2026-05-26T09:36:34.933+00:00,1151,83523,79174.39391307758,70031.81517503441,171785.6507641853,122939.19896354663,115335.0684446178,104744.29783157085,143149.44513433517,127724.19336130538,TASK2
2026-05-26T09:36:34.933+00:00,1151,83524,79174.9303549445,70034.49738436905,171788.6011944534,122939.19896354663,115335.33666555127,104745.90715717162,143155.0777739379,127729.2895590412,TASK2
2026-05-26T09:36:34.933+00:00,1151,83525,79174.19274737748,70044.15333797375,171785.4495984852,122936.31558851189,115331.38040678267,104746.17537810508,143151.9261779697,127728.28373054072,TASK2
2026-05-26T09:36:34.933+00:00,1151,83526,79170.23648860889,70046.29910544147,171784.17554905123,122933.43221347716,115334.8672789177,104747.24826183895,143150.11568666884,127728.08256484062,TASK2
2026-05-26T09:36:35.361+00:00,1152,83527,79172.65047701007,70046.29910544147,171784.98021185162,122935.04153907794,115338.62237198619,104749.66225024012,143154.6754425377,127731.8376579091,TASK2
2026-05-26T09:36:35.361+00:00,1152,83528,79175.06446541124,70050.32241944343,171785.51665371854,122939.60129494683,115334.93433415107,104752.34445957476,143155.74832627157,127724.93096887242,TASK2
2026-05-26T09:36:35.361+00:00,1152,83529,79171.10820664265,70043.95217227365,171785.78487465202,122943.62460894878,115334.19672658404,104750.26574734041,143157.89409373928,127725.19918980588,TASK2
2026-05-26T09:36:35.361+00:00,1152,83530,79172.71753224343,70048.780149076,171785.78487465202,122938.32724551288,115329.70402594852,104746.84593043875,143155.278939638,127718.02427983572,TASK2
2026-05-26T09:36:35.361+00:00,1152,83531,79181.30060211426,70052.26702121104,171783.97438335113,122936.24853327853,115334.53200275087,104747.65059323913,143154.00489020406,127712.72691639981,TASK2
2026-05-26T09:36:35.361+00:00,1152,83532,79181.8370439812,70052.06585551094,171782.43211298372,122938.12607981278,115340.16464235361,104746.10832287172,143156.15065767177,127722.38287000451,TASK2
2026-05-26T09:36:35.361+00:00,1152,83533,79180.56299454725,70050.79180607699,171780.62162168283,122939.73540541356,115340.969305154,104747.98586940597,143160.44219260718,127727.47906774032,TASK2
2026-05-26T09:36:35.361+00:00,1152,83534,79179.75833174685,70046.16499497474,171780.95689784965,122941.00945484752,115337.81770918581,104748.72347697298,143160.30808214046,127732.57526547613,TASK2
2026-05-26T09:36:35.361+00:00,1152,83535,79173.65630551055,70041.67229433922,171779.9510693492,122940.00362634702,115332.78856668336,104747.44942753903,143157.4247071057,127730.76477417524,TASK2
2026-05-26T09:36:35.361+00:00,1152,83536,79178.75250324636,70044.08628274039,171775.9948105806,122941.34473101434,115332.05095911633,104748.25409033943,143154.54133207098,127728.14962007398,TASK2
2026-05-26T09:36:35.361+00:00,1152,83537,79180.63004978061,70049.45070140966,171770.4292262112,122938.99779784653,115327.0218166139,104747.78470370587,143152.7308407701,127724.99802410578,TASK2
2026-05-26T09:36:35.361+00:00,1152,83538,79176.67379101203,70053.74223634509,171768.8869558438,122939.80246064693,115326.0159881134,104749.12580837318,143154.0719454374,127726.60734970657,TASK2
2026-05-26T09:36:35.361+00:00,1152,83539,79175.66796251154,70051.66352411074,171772.6420489123,122940.87534438078,115326.55242998032,104748.65642173962,143152.79789600347,127726.137963073,TASK2
2026-05-26T09:36:35.361+00:00,1152,83540,79176.20440437846,70043.6839513402,171775.5924791804,122940.40595774722,115325.27838054637,104746.30948857182,143150.7191837691,127722.71814617133,TASK2
2026-05-26T09:36:35.361+00:00,1152,83541,79176.00323867836,70048.24370720908,171776.66536291424,122943.35638801532,115324.27255204589,104750.06458164031,143151.5238465695,127725.66857643944,TASK2
2026-05-26T09:36:35.361+00:00,1152,83542,79177.34434334569,70053.33990494489,171775.12309254683,122946.03859734995,115325.07721484627,104750.60102350723,143153.93783497068,127725.66857643944,TASK2
2026-05-26T09:36:35.361+00:00,1152,83543,79174.99741017788,70053.60812587835,171773.5808221794,122944.49632698254,115326.15009858014,104750.13163687367,143153.73666927058,127724.39452700548,TASK2
2026-05-26T09:36:35.361+00:00,1152,83544,79178.75250324636,70047.77432057551,171773.37965647932,122946.64209445025,115326.68654044706,104754.95961367602,143154.80955300445,127729.75894567477,TASK2
2026-05-26T09:36:35.361+00:00,1152,83545,79181.16649164754,70042.20873620614,171774.9889820801,122950.12896658528,115327.49120324745,104756.03249740988,143156.4188786052,127732.97759687633,TASK2
2026-05-26T09:36:35.361+00:00,1152,83546,79182.50759631486,70047.84137580889,171775.25720301358,122949.12313808479,115330.70985444901,104754.49022704246,143155.41305010475,127732.77643117623,TASK2
2026-05-26T09:36:35.361+00:00,1152,83547,79184.3851428491,70049.9871432766,171772.6420489123,122950.73246368556,115335.53783125136,104754.49022704246,143156.75415477206,127733.84931491008,TASK2
2026-05-26T09:36:35.361+00:00,1152,83548,79184.183977149,70049.51775664304,171773.71493264614,122953.95111488714,115338.75648245293,104752.94795667504,143159.1681431732,127735.1904195774,TASK2
2026-05-26T09:36:35.361+00:00,1152,83549,79178.61839277964,70055.95505904616,171774.78781638,122952.67706545319,115330.24046781546,104749.79636070685,143156.8212100054,127733.91637014344,TASK2
2026-05-26T09:36:35.361+00:00,1152,83550,79180.76416024734,70053.87634681181,171771.36799947833,122953.74994918704,115326.55242998032,104748.5223112729,143151.79206750297,127728.887227641,TASK2
2026-05-26T09:36:35.361+00:00,1152,83551,79182.37348584813,70052.87051831133,171768.4846244436,122954.0181701205,115326.8206509138,104746.71181997201,143148.3722506013,127727.07673634012,TASK2
2026-05-26T09:36:35.361+00:00,1152,83552,79184.7874742493,70055.55272764596,171768.2834587435,122952.20767881961,115327.89353464765,104746.71181997201,143146.29353836697,127727.07673634012,TASK2
2026-05-26T09:36:35.361+00:00,1152,83553,79186.66502078355,70054.27867821201,171772.57499367892,122951.73829218606,115329.7710811819,104747.51648277241,143149.51218956854,127729.75894567477,TASK2
2026-05-26T09:36:35.361+00:00,1152,83554,79186.93324171701,70053.27284971152,171776.06186581394,122951.2689055525,115332.72151145,104742.48734026996,143147.43347733418,127722.31581477114,TASK2
2026-05-26T09:36:35.361+00:00,1152,83555,79184.04986668227,70047.97548627561,171775.5924791804,122950.79951891894,115335.13549985117,104741.213290836,143147.23231163408,127722.11464907104,TASK2
2026-05-26T09:36:35.361+00:00,1152,83556,79189.41428535155,70041.33701817239,171774.050208813,122946.30681828342,115333.86145041721,104741.48151176947,143150.98740470258,127725.06507933914,TASK2
2026-05-26T09:36:35.361+00:00,1152,83557,79191.02361095232,70031.47989886759,171768.21640351013,122944.764547916,115332.3191800498,104739.40279953512,143145.15359939975,127718.69483216938,TASK2
2026-05-26T09:36:35.361+00:00,1152,83558,79188.1402359176,70033.08922446836,171766.9423540762,122944.02694034898,115332.58740098326,104736.5194245004,143142.27022436503,127715.27501526772,TASK2
2026-05-26T09:36:35.361+00:00,1152,83559,79194.17520692052,70045.09211124088,171769.82572911092,122944.83160314937,115337.21421208551,104737.32408730079,143147.23231163408,127718.62777693602,TASK2
2026-05-26T09:36:35.361+00:00,1152,83560,79196.05275345477,70043.54984087347,171773.0443803125,122949.12313808479,115338.01887488591,104741.6156222362,143150.1827419022,127722.11464907104,TASK2
2026-05-26T09:36:35.361+00:00,1152,83561,79193.97404122043,70041.47112863912,171774.11726404633,122952.61001021981,115337.54948825233,104746.71181997201,143150.45096283566,127723.72397467183,TASK2
2026-05-26T09:36:35.361+00:00,1152,83562,79189.21311965145,70045.2262217076,171773.91609834624,122954.2193358206,115335.73899695146,104745.974212405,143147.83580873438,127722.71814617133,TASK2
2026-05-26T09:36:35.361+00:00,1152,83563,79188.7437330179,70043.14750947327,171771.8373861119,122950.263077052,115333.12384285018,104743.62727923717,143146.0253174335,127724.86391363904,TASK2
2026-05-26T09:36:35.361+00:00,1152,83564,79186.66502078355,70039.72769257161,171768.14934827678,122946.84326015034,115330.24046781546,104744.70016297103,143146.29353836697,127726.20501830637,TASK2
2026-05-26T09:36:35.361+00:00,1152,83565,79183.24520388189,70041.33701817239,171763.92486857472,122940.47301298058,115327.89353464765,104745.7730467049,143145.01948893303,127723.05342233817,TASK2
2026-05-26T09:36:35.361+00:00,1152,83566,79179.2889451133,70040.3311896719,171761.30971447346,122936.78497514546,115331.11218584921,104744.7672182044,143140.79500923096,127722.58403570461,TASK2
2026-05-26T09:36:35.361+00:00,1152,83567,79183.84870098217,70043.01339900654,171758.4263394387,122933.63337917726,115332.45329051653,104742.15206410312,143139.52095979702,127726.33912877309,TASK2
2026-05-26T09:36:35.361+00:00,1152,83568,79187.60379405066,70046.2320502081,171758.69456037218,122933.43221347716,115326.35126428022,104745.10249437123,143140.3256225974,127724.79685840568,TASK2
2026-05-26T09:36:35.361+00:00,1152,83569,79186.32974461671,70046.2320502081,171762.1814325072,122932.69460591013,115327.15592708062,104747.78470370587,143139.31979409693,127722.71814617133,TASK2
2026-05-26T09:36:35.361+00:00,1152,83570,79184.51925331584,70044.15333797375,171765.66830464223,122930.88411460926,115328.49703174795,104751.80801770782,143138.04574466296,127725.9367973729,TASK2
2026-05-26T09:36:35.361+00:00,1152,83571,79183.78164574881,70040.19707920517,171769.42339771072,122926.12319304027,115333.32500855028,104757.70887824403,143139.65507026375,127732.64232070949,TASK2
2026-05-26T09:36:35.361+00:00,1152,83572,79183.58048004871,70041.00174200557,171771.0327233115,122921.89871333822,115335.20255508453,104758.51354104442,143136.50347429555,127725.19918980588,TASK2
2026-05-26T09:36:35.361+00:00,1152,83573,79183.58048004871,70043.6839513402,171774.2513745131,122920.62466390427,115335.20255508453,104758.78176197788,143136.30230859545,127726.80851540666,TASK2
2026-05-26T09:36:35.361+00:00,1152,83574,79183.11109341515,70039.19125070468,171776.66536291424,122917.2048470026,115333.12384285018,104760.65930851213,143134.76003822804,127730.29538754169,TASK2
2026-05-26T09:36:35.361+00:00,1152,83575,79174.05863691075,70033.08922446836,171774.85487161338,122914.0532510344,115331.58157248277,104764.41440158062,143131.34022132636,127724.72980317232,TASK2
2026-05-26T09:36:35.361+00:00,1152,83576,79173.58925027719,70033.6256663353,171773.31260124594,122910.9016550662,115331.38040678267,104766.82838998179,143131.8766631933,127719.96888160333,TASK2
2026-05-26T09:36:35.361+00:00,1152,83577,79172.85164271017,70039.25830593804,171773.31260124594,122906.67717536417,115326.08304334676,104765.28611961438,143129.5297300255,127717.890169369,TASK2
2026-05-26T09:36:35.361+00:00,1152,83578,79167.82250020772,70044.08628274039,171773.11143554584,122902.18447472864,115323.73611017896,104762.93918644657,143131.40727655974,127716.8843408685,TASK2
2026-05-26T09:36:35.361+00:00,1152,83579,79172.91869794353,70044.89094554078,171771.30094424498,122901.71508809508,115322.462060745,104765.6213957812,143133.55304402745,127720.37121300353,TASK2
2026-05-26T09:36:35.361+00:00,1152,83580,79174.5280235443,70043.34867517337,171770.02689481102,122905.47018116358,115324.87604914619,104770.18115165009,143136.50347429555,127727.34495727358,TASK2
2026-05-26T09:36:35.361+00:00,1152,83581,79173.25397411035,70041.26996293903,171768.4846244436,122904.19613172962,115323.8702206457,104772.86336098472,143140.25856736404,127734.85514341058,TASK2
2026-05-26T09:36:35.361+00:00,1152,83582,79172.7845874768,70043.6839513402,171766.9423540762,122907.95122479812,115326.0159881134,104774.20446565204,143140.05740166394,127737.26913181174,TASK2
2026-05-26T09:36:35.361+00:00,1152,83583,79168.82832870822,70049.04837000948,171768.81990061043,122909.82877133235,115326.55242998032,104774.74090751896,143140.86206446434,127741.02422488024,TASK2
2026-05-26T09:36:35.361+00:00,1152,83584,79169.09654964168,70048.31076244244,171767.5458511765,122908.01828003148,115325.27838054637,104772.93041621809,143139.58801503037,127737.3361870451,TASK2
2026-05-26T09:36:35.361+00:00,1152,83585,79170.70587524245,70044.62272460732,171767.81407210993,122909.89582656573,115327.42414801409,104775.61262555272,143140.12445689732,127736.33035854463,TASK2
2026-05-26T09:36:35.361+00:00,1152,83586,79168.56010777474,70045.6285531078,171772.038551812,122907.34772769782,115331.17924108257,104776.14906741965,143137.50930279604,127735.12336434404,TASK2
2026-05-26T09:36:35.361+00:00,1152,83587,79168.82832870822,70042.4769571396,171770.22806051112,122906.34189919733,115329.3687497817,104773.26569238491,143135.43059056168,127735.12336434404,TASK2
2026-05-26T09:36:35.361+00:00,1152,83588,79168.82832870822,70035.03382623597,171767.3446854764,122908.21944573158,115322.19383981155,104772.79630575136,143130.13322712577,127731.70354744238,TASK2
2026-05-26T09:36:35.361+00:00,1152,83589,79167.55427927426,70033.49155586856,171769.22223201062,122910.9016550662,115324.0713863458,104774.6738522856,143126.44518929065,127726.67440493993,TASK2
2026-05-26T09:36:35.361+00:00,1152,83590,79174.25980261085,70038.31953267092,171769.22223201062,122914.6567481347,115328.09470034775,104778.4289453541,143127.24985209104,127727.47906774032,TASK2
2026-05-26T09:36:35.361+00:00,1152,83591,79176.94201194549,70049.04837000948,171764.1930895082,122909.89582656573,115327.35709278072,104773.93624471857,143127.04868639095,127727.27790204022,TASK2
2026-05-26T09:36:35.361+00:00,1152,83592,79177.47845381241,70052.5352421445,171756.74995860457,122905.93956779713,115326.6194852137,104772.66219528462,143128.65801199173,127728.61900670754,TASK2
2026-05-26T09:36:35.361+00:00,1152,83593,79176.74084624539,70049.65186710976,171754.6712463702,122906.47600966407,115326.15009858014,104772.19280865106,143129.73089572557,127726.80851540666,TASK2
2026-05-26T09:36:35.361+00:00,1152,83594,79175.19857587798,70044.35450367385,171760.57210690642,122908.3535561983,115326.68654044706,104771.18698015057,143130.26733759252,127722.31581477114,TASK2
2026-05-26T09:36:35.361+00:00,1152,83595,79176.53968054529,70042.54401237298,171762.44965344068,122909.96288179909,115325.14427007965,104769.64470978316,143129.79795095895,127718.35955600256,TASK2
2026-05-26T09:36:35.361+00:00,1152,83596,79177.61256427914,70048.44487290918,171761.1756040067,122912.91331206719,115324.40666251261,104768.63888128266,143127.71923872462,127714.67151816742,TASK2
2026-05-26T09:36:35.361+00:00,1152,83597,79177.14317764559,70045.56149787444,171760.4379964397,122918.009509803,115326.8206509138,104769.44354408306,143127.98745965806,127716.81728563513,TASK2
2026-05-26T09:36:35.361+00:00,1152,83598,79176.40557007855,70041.60523910585,171758.0910632719,122921.22816100456,115328.69819744804,104771.05286968384,143127.98745965806,127722.18170430441,TASK2
2026-05-26T09:36:35.361+00:00,1152,83599,79174.32685784422,70047.23787870859,171761.30971447346,122923.37392847227,115328.49703174795,104773.19863715155,143128.523901525,127724.32747177212,TASK2
2026-05-26T09:36:35.361+00:00,1152,83600,79174.12569214412,70046.76849207503,171763.1872610077,122921.29521623794,115324.54077297935,104771.1199249172,143125.10408462334,127720.10299207007,TASK2
2026-05-26T09:36:35.361+00:00,1152,83601,79177.34434334569,70039.32536117142,171759.49922317258,122920.5576086709,115320.85273514423,104770.38231735019,143121.68426772166,127720.90765487046,TASK2
2026-05-26T09:36:35.361+00:00,1152,83602,79172.31520084324,70036.9784280036,171755.54296440398,122920.82582960436,115319.84690664374,104769.91293071661,143121.68426772166,127722.78520140471,TASK2
2026-05-26T09:36:35.361+00:00,1152,83603,79176.60673577865,70042.61106760634,171756.34762720438,122922.97159707207,115320.1151275772,104767.02955568189,143121.21488108812,127720.17004730343,TASK2
2026-05-26T09:36:35.361+00:00,1152,83604,79181.434712581,70040.532355372,171760.37094120632,122924.04448080594,115323.60199971222,104767.29777661535,143120.20905258763,127718.35955600256,TASK2
2026-05-26T09:36:35.361+00:00,1152,83605,79185.1898056495,70039.25830593804,171760.37094120632,122921.69754763812,115326.8206509138,104766.29194811486,143121.2819363215,127718.89599786948,TASK2
2026-05-26T09:36:35.361+00:00,1152,83606,79184.45219808246,70041.40407340575,171757.21934523812,122923.57509417237,115327.62531371418,104769.77882024989,143122.89126192225,127718.69483216938,TASK2
2026-05-26T09:36:35.361+00:00,1152,83607,79184.72041901594,70040.66646583873,171756.21351673765,122923.10570753881,115327.62531371418,104768.7729917494,143120.276107821,127714.47035246732,TASK2
2026-05-26T09:36:35.361+00:00,1152,83608,79184.72041901594,70044.68977984069,171755.74413010408,122922.63632090525,115329.7710811819,104769.30943361633,143121.0807706214,127715.00679433426,TASK2
2026-05-26T09:36:35.361+00:00,1152,83609,79187.40262835057,70046.29910544147,171755.74413010408,122925.58675117335,115322.59617121174,104772.5280848179,143123.49475902255,127714.80562863416,TASK2
2026-05-26T09:36:35.361+00:00,1152,83610,79187.40262835057,70045.8297188079,171755.54296440398,122923.77625987247,115316.7623659089,104774.40563135214,143123.025372389,127715.07384956762,TASK2
2026-05-26T09:36:35.361+00:00,1152,83611,79183.71459051545,70045.8297188079,171758.49339467208,122923.30687323891,115321.59034271125,104775.74673601946,143126.24402359055,127723.12047757153,TASK2
2026-05-26T09:36:35.361+00:00,1152,83612,79185.05569518276,70043.75100657357,171763.32137147442,122928.13485004126,115322.93144737856,104774.4726865855,143128.38979105826,127725.80268690617,TASK2
2026-05-26T09:36:35.361+00:00,1152,83613,79188.00612545086,70042.74517807308,171766.00358080908,122931.62172217628,115326.95476138052,104776.08201218629,143129.99911665905,127727.94845437388,TASK2
2026-05-26T09:36:35.361+00:00,1152,83614,79184.85452948266,70043.01339900654,171767.8811273433,122931.62172217628,115329.3687497817,104779.03244245438,143131.34022132636,127733.31287304315,TASK2
2026-05-26T09:36:35.361+00:00,1152,83615,79188.3414016177,70044.35450367385,171765.26597324203,122931.88994310975,115328.89936314813,104786.27440765791,143127.38396255777,127733.11170734305,TASK2
2026-05-26T09:36:35.361+00:00,1152,83616,79189.41428535155,70047.84137580889,171761.84615634038,122932.9628268436,115332.65445621662,104789.49305885947,143127.92040442472,127727.27790204022,TASK2
2026-05-26T09:36:35.361+00:00,1152,83617,79189.74956151837,70045.4273874077,171759.90155457277,122933.36515824379,115336.27543881838,104783.25692215643,143128.7250672251,127726.74146017329,TASK2
2026-05-26T09:36:35.361+00:00,1152,83618,79191.62710805262,70047.84137580889,171758.6275051388,122932.35932974331,115336.27543881838,104785.40268962416,143126.10991312383,127724.93096887242,TASK2
2026-05-26T09:36:35.361+00:00,1152,83619,79195.38220112112,70059.37487594782,171757.62167663831,122933.70043441062,115335.53783125136,104785.93913149108,143128.523901525,127723.92514037192,TASK2
2026-05-26T09:36:35.361+00:00,1152,83620,79198.60085232268,70058.36904744733,171760.57210690642,122933.96865534408,115336.34249405176,104785.73796579098,143129.86500619233,127721.30998627066,TASK2
2026-05-26T09:36:35.361+00:00,1152,83621,79196.7903610218,70057.09499801337,171760.10272027287,122933.49926871053,115334.80022368433,104785.73796579098,143125.64052649026,127719.49949496977,TASK2
2026-05-26T09:36:35.361+00:00,1152,83622,79193.37054412013,70054.74806484557,171761.1756040067,122930.6158936758,115330.30752304882,104781.51348608892,143123.025372389,127717.95722460236,TASK2
2026-05-26T09:36:35.361+00:00,1152,83623,79188.60962255116,70048.3778176758,171758.0240080385,122928.80540237491,115327.15592708062,104775.94790171956,143122.0195438885,127716.14673330147,TASK2
2026-05-26T09:36:35.361+00:00,1152,83624,79191.82827375272,70048.3778176758,171755.6770748707,122934.43804197766,115325.34543577975,104776.48434358648,143121.55015725494,127715.140904801,TASK2
2026-05-26T09:36:35.361+00:00,1152,83625,79194.2422621539,70047.37198917533,171756.74995860457,122943.02111184849,115329.63697071516,104778.6301110542,143125.84169219036,127718.09133506908,TASK2
2026-05-26T09:36:35.361+00:00,1152,83626,79188.944898718,70048.9813147761,171756.74995860457,122943.82577464888,115332.3191800498,104779.70299478805,143126.64635499075,127721.57820720412,TASK2
2026-05-26T09:36:35.691+00:00,1153,83627,79190.2860033853,70053.00462877806,171756.01235103756,122942.81994614839,115334.19672658404,104778.69716628756,143122.69009622216,127716.81728563513,TASK2
2026-05-26T09:36:35.691+00:00,1153,83628,79196.18686392151,70054.61395437884,171758.96278130566,122943.08816708185,115336.07427311828,104778.96538722102,143126.44518929065,127716.34789900157,TASK2
2026-05-26T09:36:35.691+00:00,1153,83629,79197.52796858882,70054.8821753123,171760.57210690642,122944.1610508157,115332.38623528316,104781.91581748912,143127.51807302452,127718.22544553582,TASK2
2026-05-26T09:36:35.691+00:00,1153,83630,79197.05858195527,70052.80346307796,171757.15229000477,122946.57503921688,115335.0684446178,104783.79336402337,143129.1273986253,127721.44409673738,TASK2
2026-05-26T09:36:35.691+00:00,1153,83631,79197.59502382218,70052.06585551094,171752.65958936926,122944.22810604908,115334.33083705077,104784.59802682376,143128.38979105826,127721.24293103728,TASK2
2026-05-26T09:36:35.691+00:00,1153,83632,79199.74079128989,70050.79180607699,171753.19603123618,122947.17853631718,115336.47660451848,104786.74379429147,143130.53555852597,127723.12047757153,TASK2
2026-05-26T09:36:35.691+00:00,1153,83633,79197.12563718863,70053.47401541162,171750.84909806837,122946.17270781669,115338.89059291966,104787.28023615839,143130.33439282587,127724.99802410578,TASK2
2026-05-26T09:36:35.691+00:00,1153,83634,79194.2422621539,70056.42444567972,171752.7266446026,122945.43510024966,115338.89059291966,104787.81667802532,143127.71923872462,127726.60734970657,TASK2
2026-05-26T09:36:35.691+00:00,1153,83635,79196.38802962161,70055.41861717924,171754.8724120703,122946.23976305005,115339.96347665352,104785.73796579098,143121.0807706214,127717.01845133523,TASK2
2026-05-26T09:36:35.691+00:00,1153,83636,79196.18686392151,70055.95505904616,171751.1843742352,122941.74706241454,115337.88476441917,104781.51348608892,143119.2702793205,127711.72108789932,TASK2
2026-05-26T09:36:35.691+00:00,1153,83637,79194.37637262062,70058.36904744733,171750.9832085351,122941.00945484752,115337.14715685214,104781.31232038882,143122.75715145553,127713.59863443357,TASK2
2026-05-26T09:36:35.691+00:00,1153,83638,79196.5891953217,70061.3865329488,171757.8228423384,122944.29516128244,115340.36580805371,104786.07324195781,143122.89126192225,127715.87851236801,TASK2
2026-05-26T09:36:35.691+00:00,1153,83639,79192.90115748657,70060.38070444831,171762.11437727386,122947.78203341748,115339.89642142014,104789.29189315937,143121.61721248832,127711.65403266596,TASK2
2026-05-26T09:36:35.691+00:00,1153,83640,79189.74956151837,70051.06002701045,171761.10854877337,122949.12313808479,115338.62237198619,104786.14029719117,143119.2702793205,127708.50243669776,TASK2
2026-05-26T09:36:35.691+00:00,1153,83641,79194.30931738726,70050.32241944343,171758.49339467208,122946.50798398352,115337.08010161878,104783.25692215643,143117.19156708615,127709.30709949815,TASK2
2026-05-26T09:36:35.691+00:00,1153,83642,79193.57170982023,70048.51192814254,171758.0240080385,122942.55172521493,115336.61071498522,104782.78753552288,143119.0691136204,127713.06219256665,TASK2
2026-05-26T09:36:35.691+00:00,1153,83643,79192.83410225321,70049.31659094294,171758.56044990546,122941.27767578098,115338.75648245293,104781.24526515546,143125.23819509006,127715.74440190128,TASK2
2026-05-26T09:36:35.691+00:00,1153,83644,79192.09649468618,70053.33990494489,171758.56044990546,122940.27184728048,115340.36580805371,104782.31814888932,143126.04285789045,127715.27501526772,TASK2
2026-05-26T09:36:35.691+00:00,1153,83645,79194.77870402082,70053.87634681181,171758.8286708389,122938.19313504614,115341.97513365449,104782.11698318922,143123.69592472265,127715.81145713465,TASK2
2026-05-26T09:36:35.691+00:00,1153,83646,79199.33845988971,70055.4856724126,171756.21351673765,122938.46135597961,115343.58445925527,104782.92164598961,143125.5734712569,127718.76188740275,TASK2
2026-05-26T09:36:35.691+00:00,1153,83647,79200.94778549048,70056.55855614645,171753.06192076945,122940.33890251385,115342.04218888786,104782.45225935605,143127.71923872462,127718.76188740275,TASK2
2026-05-26T09:36:35.691+00:00,1153,83648,79199.13729418961,70058.16788174724,171751.25142946857,122940.13773681375,115341.57280225429,104781.71465178902,143126.1769683572,127717.4878379688,TASK2
2026-05-26T09:36:35.691+00:00,1153,83649,79199.13729418961,70058.97254454762,171752.05609226896,122941.47884148108,115344.52323252239,104781.24526515546,143125.43936079016,127714.60446293406,TASK2
2026-05-26T09:36:35.691+00:00,1153,83650,79201.81950352424,70057.16205324675,171754.47008067014,122942.55172521493,115348.27832559089,104783.65925355663,143128.38979105826,127716.48200946831,TASK2
2026-05-26T09:36:35.691+00:00,1153,83651,79203.69705005849,70052.1329107443,171754.7383016036,122942.81994614839,115345.66317148962,104781.84876225576,143128.38979105826,127716.75023040177,TASK2
2026-05-26T09:36:35.691+00:00,1153,83652,79203.96527099195,70042.27579143952,171752.9278103027,122942.08233858137,115343.58445925527,104781.84876225576,143128.9262329252,127716.01262283475,TASK2
2026-05-26T09:36:35.691+00:00,1153,83653,79199.47257035643,70037.78309080398,171752.9278103027,122943.69166418214,115346.2666685899,104783.18986692307,143131.07200039292,127718.42661123592,TASK2
2026-05-26T09:36:35.691+00:00,1153,83654,79202.42300062453,70043.41573040673,171752.9278103027,122944.22810604908,115347.0713313903,104782.72048028951,143131.60844225984,127719.76771590323,TASK2
2026-05-26T09:36:35.691+00:00,1153,83655,79207.7874192938,70048.24370720908,171754.26891497005,122945.83743164985,115348.41243605762,104785.67091055762,143131.60844225984,127726.47323923983,TASK2
2026-05-26T09:36:35.691+00:00,1153,83656,79201.41717212404,70055.4856724126,171753.79952833647,122947.17853631718,115341.23752608747,104786.74379429147,143125.23819509006,127726.47323923983,TASK2
2026-05-26T09:36:35.691+00:00,1153,83657,79200.41134362356,70061.11831201533,171747.96572303365,122944.5633822159,115339.42703478658,104782.51931458942,143120.4772735211,127717.6890036689,TASK2
2026-05-26T09:36:35.691+00:00,1153,83658,79205.50754135937,70058.77137884752,171746.69167359968,122945.63626594975,115341.03636038737,104787.34729139176,143122.35482005533,127715.34207050108,TASK2
2026-05-26T09:36:35.691+00:00,1153,83659,79207.11686696015,70053.74223634509,171750.71498760165,122951.00068461904,115341.84102318776,104790.56594259333,143122.6230409888,127715.34207050108,TASK2
2026-05-26T09:36:35.691+00:00,1153,83660,79201.81950352424,70056.96088754665,171749.17271723424,122954.48755675406,115342.37746505468,104787.68256755859,143119.4714450206,127715.87851236801,TASK2
2026-05-26T09:36:35.691+00:00,1153,83661,79202.08772445771,70056.4915009131,171747.6304468668,122956.09688235485,115344.79145345585,104786.67673905811,143121.34899155484,127718.82894263612,TASK2
2026-05-26T09:36:35.691+00:00,1153,83662,79205.30637565927,70054.14456774529,171748.4351096672,122952.94528638665,115344.3220668223,104786.20735242454,143120.34316305435,127720.17004730343,TASK2
2026-05-26T09:36:35.691+00:00,1153,83663,79207.5862535937,70052.3340764444,171749.03860676748,122952.14062358625,115343.58445925527,104788.28606465888,143123.09242762235,127722.91931187143,TASK2
2026-05-26T09:36:35.691+00:00,1153,83664,79208.3909163941,70053.1387392448,171752.79369983598,122955.09105385435,115344.65734298913,104788.55428559234,143125.774636957,127721.10882057056,TASK2
2026-05-26T09:36:35.691+00:00,1153,83665,79208.65913732757,70061.9900300491,171754.6712463702,122956.43215852167,115348.14421512415,104789.09072745928,143131.6754974932,127723.52280897173,TASK2
2026-05-26T09:36:35.691+00:00,1153,83666,79209.46380012795,70069.76843711954,171751.7878713355,122958.57792598938,115351.36286632571,104792.5775995943,143136.50347429555,127730.76477417524,TASK2
2026-05-26T09:36:35.691+00:00,1153,83667,79209.46380012795,70071.10954178686,171749.9773800346,122959.9190306567,115356.45906406154,104795.79625079587,143140.79500923096,127739.88428591301,TASK2
2026-05-26T09:36:35.691+00:00,1153,83668,79216.43754439801,70069.03082955252,171751.85492656886,122965.28344932597,115361.28704086387,104798.4784601305,143150.98740470258,127747.93091391692,TASK2
2026-05-26T09:36:35.691+00:00,1153,83669,79209.26263442785,70062.12414051582,171756.14646150428,122968.23387959407,115364.7739129989,104797.74085256348,143155.278939638,127750.3449023181,TASK2
2026-05-26T09:36:35.691+00:00,1153,83670,79211.9448437625,70060.85009108187,171756.6829033712,122971.18430986218,115364.03630543187,104798.00907349694,143150.24979713556,127746.38864354951,TASK2
2026-05-26T09:36:35.691+00:00,1153,83671,79218.91858803255,70070.2378237531,171754.8724120703,122968.56915576091,115358.73894199597,104796.46680312953,143150.51801806904,127742.96882664785,TASK2
2026-05-26T09:36:35.691+00:00,1153,83672,79217.6445385986,70072.92003308774,171754.8724120703,122965.41755979271,115359.2753838629,104793.58342809479,143148.9757477016,127741.42655628044,TASK2
2026-05-26T09:36:35.691+00:00,1153,83673,79218.18098046552,70074.52935868852,171755.6770748707,122964.14351035876,115360.61648853021,104794.11986996172,143147.96991920113,127742.76766094775,TASK2
2026-05-26T09:36:35.691+00:00,1153,83674,79220.5949688667,70069.50021618608,171754.9394673037,122967.36216156032,115359.61066002972,104799.21606769753,143148.50636106805,127743.8405446816,TASK2
2026-05-26T09:36:35.691+00:00,1153,83675,79220.3938031666,70065.54395741748,171750.9832085351,122966.62455399329,115361.48820656397,104799.21606769753,143146.4276488337,127746.52275401625,TASK2
2026-05-26T09:36:35.691+00:00,1153,83676,79218.58331186572,70071.98125982062,171746.49050789958,122965.35050455933,115361.28704086387,104801.6300560987,143148.30519536795,127749.20496335087,TASK2
2026-05-26T09:36:35.691+00:00,1153,83677,79214.8952740306,70073.85880635487,171744.6800165987,122964.07645512538,115357.86722396221,104800.35600666475,143149.10985816835,127749.00379765077,TASK2
2026-05-26T09:36:35.691+00:00,1153,83678,79213.35300366319,70069.90254758627,171744.6800165987,122959.85197542333,115354.71562799401,104795.86330602923,143145.15359939975,127741.56066674716,TASK2
2026-05-26T09:36:35.691+00:00,1153,83679,79213.62122459665,70065.67806788422,171746.02112126604,122958.57792598938,115354.24624136045,104795.1256984622,143144.68421276618,127739.21373357935,TASK2
2026-05-26T09:36:35.691+00:00,1153,83680,79212.3471751627,70062.25825098256,171750.5808771349,122965.01522839251,115357.73311349549,104795.9303612626,143151.65795703625,127744.0417103817,TASK2
2026-05-26T09:36:35.691+00:00,1153,83681,79213.15183796309,70063.59935564987,171747.69750210017,122962.40007429123,115357.53194779539,104794.65631182864,143153.26728263704,127745.11459411556,TASK2
2026-05-26T09:36:35.691+00:00,1153,83682,79213.42005889655,70061.52064341553,171745.35056893236,122964.27762082548,115358.33661059577,104795.99741649597,143154.34016637088,127745.91925691595,TASK2
2026-05-26T09:36:35.691+00:00,1153,83683,79208.65913732757,70054.8821753123,171749.10566200086,122972.05602789593,115357.59900302875,104802.97116076601,143164.80078277597,127754.50232678678,TASK2
2026-05-26T09:36:35.691+00:00,1153,83684,79216.43754439801,70055.41861717924,171749.91032480125,122976.88400469828,115360.01299142992,104800.62422759821,143164.80078277597,127759.33030358913,TASK2
2026-05-26T09:36:35.691+00:00,1153,83685,79218.85153279919,70059.4419311812,171743.80829856495,122966.75866446002,115356.05673266134,104789.69422455957,143149.31102386845,127748.40030055048,TASK2
2026-05-26T09:36:35.691+00:00,1153,83686,79219.38797466611,70061.31947771543,171740.38848166328,122960.9248591572,115354.78268322739,104789.96244549303,143146.69586976717,127743.90759991496,TASK2
2026-05-26T09:36:35.691+00:00,1153,83687,79222.07018400075,70066.14745451778,171742.80247006446,122964.41173129222,115362.29286936436,104791.57177109382,143148.5734163014,127741.02422488024,TASK2
2026-05-26T09:36:35.691+00:00,1153,83688,79221.33257643372,70066.68389638471,171746.55756313296,122968.16682436071,115367.9255089671,104792.10821296074,143150.7191837691,127742.09710861409,TASK2
2026-05-26T09:36:35.691+00:00,1153,83689,79222.13723923411,70065.94628881768,171751.65376086876,122973.53124302998,115377.31324163833,104796.1315269627,143154.4742768376,127750.41195755146,TASK2
2026-05-26T09:36:35.691+00:00,1153,83690,79225.35589043568,70066.61684115134,171752.5254789025,122977.35339133184,115382.2753289074,104800.35600666475,143156.6200443053,127753.89882968648,TASK2
2026-05-26T09:36:35.691+00:00,1153,83691,79226.16055323607,70066.88506208481,171751.51965040204,122980.5720425334,115375.10041893725,104801.4288903986,143157.15648617226,127752.893001186,TASK2
2026-05-26T09:36:35.691+00:00,1153,83692,79225.42294566905,70067.15328301827,171752.3243132024,122983.5224728015,115371.94882296906,104802.233553199,143156.4188786052,127751.08250988512,TASK2
2026-05-26T09:36:35.691+00:00,1153,83693,79224.41711716856,70067.15328301827,171752.86075506936,122983.79069373496,115370.67477353511,104804.11109973324,143154.8766082378,127748.46735578385,TASK2
2026-05-26T09:36:35.691+00:00,1153,83694,79226.2946637028,70064.80634985046,171753.39719693628,122987.54578680346,115371.21121540203,104805.98864626749,143158.89992223977,127752.49066978581,TASK2
2026-05-26T09:36:35.691+00:00,1153,83695,79226.2946637028,70061.92297481572,171753.66541786975,122989.95977520464,115369.40072410116,104803.90993403314,143159.9728059736,127753.02711165273,TASK2
2026-05-26T09:36:35.691+00:00,1153,83696,79222.33840493421,70059.84426258138,171753.9336388032,122991.0326589385,115370.20538690154,104805.51925963392,143158.4305356062,127748.53441101722,TASK2
2026-05-26T09:36:35.691+00:00,1153,83697,79220.7961345668,70057.49732941357,171750.782042835,122990.8314932384,115369.19955840106,104803.70876833305,143155.01071870455,127745.65103598249,TASK2
2026-05-26T09:36:35.691+00:00,1153,83698,79219.25386419939,70062.86174808285,171751.85492656886,122991.09971417185,115366.85262523325,104803.23938169949,143154.2731111375,127744.645207482,TASK2
2026-05-26T09:36:35.691+00:00,1153,83699,79226.76405033637,70074.66346915525,171751.11731900185,122991.36793510531,115365.84679673276,104805.92159103412,143156.15065767177,127744.645207482,TASK2
2026-05-26T09:36:35.691+00:00,1153,83700,79228.10515500368,70080.02788782453,171750.64793236827,122989.02100193751,115367.18790140007,104808.60380036876,143160.1739716737,127749.47318428435,TASK2
2026-05-26T09:36:35.691+00:00,1153,83701,79224.95355903548,70066.68389638471,171749.91032480125,122987.21051063664,115367.18790140007,104806.25686720095,143157.8270385059,127749.27201858425,TASK2
2026-05-26T09:36:36.086+00:00,1154,83702,79221.53374213382,70053.33990494489,171748.90449630076,122987.21051063664,115366.45029383306,104801.2277246985,143153.8707797373,127747.1933063499,TASK2
2026-05-26T09:36:36.086+00:00,1154,83703,79224.21595146846,70056.290335213,171750.24560096808,122988.81983623741,115368.59606130076,104800.49011713149,143149.64630003527,127740.55483824667,TASK2
2026-05-26T09:36:36.086+00:00,1154,83704,79228.50748640388,70068.62849815232,171753.46425216965,122992.30670837245,115372.08293343578,104801.29477993188,143153.1331721703,127737.67146321194,TASK2
2026-05-26T09:36:36.086+00:00,1154,83705,79229.8485910712,70066.28156498451,171750.04443526798,122989.4233333377,115373.15581716964,104789.8283350263,143155.81538150494,127740.08545161311,TASK2
2026-05-26T09:36:36.086+00:00,1154,83706,79230.92147480506,70063.39818994977,171748.2339439671,122988.14928390375,115374.49692183697,104791.97410249402,143160.3751373738,127746.25453308277,TASK2
2026-05-26T09:36:36.086+00:00,1154,83707,79233.33546320623,70063.39818994977,171754.6712463702,122990.29505137146,115375.56980557082,104796.26563742943,143160.3751373738,127750.27784708473,TASK2
2026-05-26T09:36:36.086+00:00,1154,83708,79232.59785563921,70060.51481491505,171760.30388597297,122992.70903977264,115376.37446837121,104796.53385836289,143157.75998327255,127750.81428895166,TASK2
2026-05-26T09:36:36.086+00:00,1154,83709,79228.64159687061,70060.51481491505,171762.71787437412,122993.24548163956,115376.17330267112,104800.55717236485,143161.51507634102,127757.25159135478,TASK2
2026-05-26T09:36:36.086+00:00,1154,83710,79225.22177996895,70061.31947771543,171761.9802668071,122993.51370257302,115373.02170670292,104800.08778573129,143159.4363641067,127756.51398378777,TASK2
2026-05-26T09:36:36.086+00:00,1154,83711,79233.80484983978,70056.55855614645,171755.61001963736,122990.89854847176,115371.74765726896,104795.59508509577,143154.6754425377,127752.28950408571,TASK2
2026-05-26T09:36:36.086+00:00,1154,83712,79237.29172197482,70056.35739044636,171751.11731900185,122986.6740687697,115373.08876193628,104791.90704726064,143146.4276488337,127750.21079185136,TASK2
2026-05-26T09:36:36.086+00:00,1154,83713,79237.55994290828,70057.43027418021,171749.03860676748,122984.86357746882,115367.79139850037,104791.90704726064,143141.39850633126,127748.93674241741,TASK2
2026-05-26T09:36:36.086+00:00,1154,83714,79237.55994290828,70057.69849511367,171751.1843742352,122987.00934493654,115370.20538690154,104797.27146592992,143145.95826220015,127756.98337042132,TASK2
2026-05-26T09:36:36.086+00:00,1154,83715,79236.01767254087,70057.69849511367,171754.6712463702,122989.69155427116,115374.49692183697,104796.53385836289,143147.56758780094,127760.73846348982,TASK2
2026-05-26T09:36:36.086+00:00,1154,83716,79232.86607657267,70062.25825098256,171752.59253413588,122990.2279961381,115374.0275352034,104792.04115772738,143150.51801806904,127759.19619312239,TASK2
2026-05-26T09:36:36.086+00:00,1154,83717,79232.66491087257,70065.47690218412,171752.1231475023,122994.51953107351,115373.8263695033,104793.91870426162,143155.34599487137,127761.34196059011,TASK2
2026-05-26T09:36:36.086+00:00,1154,83718,79235.61534114067,70058.8384340809,171752.39136843578,122999.0792869424,115376.50857883794,104798.21023919704,143156.68709953869,127762.68306525743,TASK2
2026-05-26T09:36:36.086+00:00,1154,83719,79237.76110860838,70057.29616371347,171752.65958936926,123001.22505441011,115374.69808753706,104800.89244853168,143156.4859338386,127760.06791115616,TASK2
2026-05-26T09:36:36.086+00:00,1154,83720,79237.76110860838,70061.05125678197,171752.9278103027,122998.07345844191,115371.01004970193,104796.1315269627,143152.52967507,127752.62478025253,TASK2
2026-05-26T09:36:36.086+00:00,1154,83721,79235.3471202072,70065.54395741748,171754.5371359035,122997.93934797517,115368.46195083403,104796.66796882963,143151.18857040268,127749.27201858425,TASK2
2026-05-26T09:36:36.086+00:00,1154,83722,79230.31797770476,70061.85591958236,171756.41468243775,122995.59241480737,115366.65145953315,104797.47263163002,143146.96409070064,127744.2428760818,TASK2
2026-05-26T09:36:36.086+00:00,1154,83723,79238.36460570867,70050.12125374333,171758.292228972,122995.59241480737,115367.99256420047,104796.19858219606,143141.93494819818,127739.75017544629,TASK2
2026-05-26T09:36:36.086+00:00,1154,83724,79240.24215224292,70049.92008804323,171760.16977550622,122995.86063574083,115367.99256420047,104796.19858219606,143139.85623596385,127736.06213761115,TASK2
2026-05-26T09:36:36.086+00:00,1154,83725,79236.28589347433,70058.50315791406,171759.96860980612,122991.36793510531,115361.89053796417,104791.97410249402,143134.29065159446,127722.18170430441,TASK2
2026-05-26T09:36:36.086+00:00,1154,83726,79235.01184404037,70064.94046031719,171755.20768823716,122988.48456007059,115360.34826759675,104790.70005306006,143134.29065159446,127719.03010833621,TASK2
2026-05-26T09:36:36.086+00:00,1154,83727,79235.5482859073,70069.76843711954,171750.44676666817,122992.776095006,115364.90802346563,104797.13735546319,143136.97286092912,127719.03010833621,TASK2
2026-05-26T09:36:36.086+00:00,1154,83728,79241.98558831043,70071.37776272032,171752.3243132024,122998.94517647567,115370.00422120144,104800.89244853168,143142.33727959837,127724.39452700548,TASK2
2026-05-26T09:36:36.086+00:00,1154,83729,79241.98558831043,70067.95794581866,171756.0794062709,122998.20756890863,115370.54066306837,104799.35017816426,143138.64924176325,127720.17004730343,TASK2
2026-05-26T09:36:36.086+00:00,1154,83730,79235.88356207413,70062.39236144928,171756.61584813785,122991.83732173887,115367.65728803363,104798.61257059724,143130.93788992616,127717.01845133523,TASK2
2026-05-26T09:36:36.086+00:00,1154,83731,79236.95644580798,70053.87634681181,171756.61584813785,122991.09971417185,115365.5785757993,104803.9769892665,143129.93206142567,127721.84642813758,TASK2
2026-05-26T09:36:36.086+00:00,1154,83732,79236.95644580798,70057.36321894685,171756.14646150428,122997.00057470806,115364.03630543187,104810.95073353656,143131.27316609301,127728.01550960724,TASK2
2026-05-26T09:36:36.086+00:00,1154,83733,79241.2479807434,70071.84714935388,171756.6829033712,122999.14634217577,115367.52317756691,104812.02361727042,143137.97868942958,127732.30704454267,TASK2
2026-05-26T09:36:36.086+00:00,1154,83734,79244.73485287844,70078.284451757,171758.0240080385,122995.45830434063,115374.22870090349,104816.04693127237,143143.34310809887,127733.64814920998,TASK2
2026-05-26T09:36:36.086+00:00,1154,83735,79242.11969877715,70078.08328605692,171756.21351673765,122988.28339437049,115375.30158463735,104818.99736154047,143137.24108186256,127727.81434390714,TASK2
2026-05-26T09:36:36.086+00:00,1154,83736,79233.60368413969,70077.07745755643,171746.89283929978,122981.91314720073,115372.95465146954,104818.52797490692,143130.06617189242,127720.90765487046,TASK2
2026-05-26T09:36:36.086+00:00,1154,83737,79229.6474253711,70069.90254758627,171742.66835959774,122978.49333029905,115371.94882296906,104822.28306797541,143129.3285643254,127731.36827127554,TASK2
2026-05-26T09:36:36.086+00:00,1154,83738,79229.6474253711,70062.1911957492,171745.35056893236,122975.0735133974,115364.50569206545,104822.81950984233,143129.86500619233,127737.26913181174,TASK2
2026-05-26T09:36:36.086+00:00,1154,83739,79229.6474253711,70069.43316095271,171747.49633640007,122970.58081276188,115365.04213393237,104824.16061450964,143133.08365739387,127737.80557367866,TASK2
2026-05-26T09:36:36.086+00:00,1154,83740,79227.03227126983,70078.01623082354,171749.64210386778,122967.96565866061,115367.99256420047,104828.1839285116,143136.03408766197,127740.75600394676,TASK2
2026-05-26T09:36:36.086+00:00,1154,83741,79225.75822183587,70072.45064645418,171748.6362753673,122964.27762082548,115370.13833166817,104830.06147504585,143137.91163419624,127738.1408498455,TASK2
2026-05-26T09:36:36.086+00:00,1154,83742,79225.95938753597,70068.22616675212,171745.88701079928,122963.60706849182,115374.63103230369,104831.3355244798,143140.5267882975,127742.70060571439,TASK2
2026-05-26T09:36:36.086+00:00,1154,83743,79221.73490783392,70063.46524518315,171743.27185669803,122965.21639409261,115375.43569510408,104833.21307101405,143144.81832323293,127747.7968034502,TASK2
2026-05-26T09:36:36.086+00:00,1154,83744,79227.63576837012,70059.50898641456,171745.6858450992,122967.89860342724,115378.11790443872,104837.77282688294,143144.81832323293,127749.40612905097,TASK2
2026-05-26T09:36:36.086+00:00,1154,83745,79221.26552120036,70062.1911957492,171746.49050789958,122965.28344932597,115379.19078817258,104837.77282688294,143137.37519232932,127748.66852148395,TASK2
2026-05-26T09:36:36.086+00:00,1154,83746,79218.6503670991,70063.26407948305,171746.02112126604,122964.54584175895,115379.19078817258,104838.30926874986,143131.80960795993,127745.51692551575,TASK2
2026-05-26T09:36:36.086+00:00,1154,83747,79223.21012296797,70065.67806788422,171747.89866780027,122965.08228362587,115380.53189283989,104840.45503621757,143130.53555852597,127744.51109701526,TASK2
2026-05-26T09:36:36.086+00:00,1154,83748,79222.74073633441,70071.31070748696,171748.4351096672,122964.88111792578,115380.3307271398,104843.67368741914,143128.45684629164,127746.65686448297,TASK2
2026-05-26T09:36:36.086+00:00,1154,83749,79224.61828286866,70072.38359122082,171750.04443526798,122967.02688539348,115379.86134050624,104844.47835021952,143125.30525032344,127747.1933063499,TASK2
2026-05-26T09:36:36.086+00:00,1154,83750,79227.83693407022,70072.92003308774,171753.79952833647,122968.63621099427,115385.76220104244,104847.96522235456,143128.523901525,127750.9483994184,TASK2
2026-05-26T09:36:36.086+00:00,1154,83751,79231.86024807217,70074.52935868852,171756.21351673765,122969.97731566158,115389.24907317746,104851.45209448958,143135.76586672853,127758.45858555537,TASK2
2026-05-26T09:36:36.086+00:00,1154,83752,79228.44043117051,70074.52935868852,171752.25725796906,122971.05019939544,115388.24324467698,104853.59786195729,143138.98451793008,127762.48189955733,TASK2
2026-05-26T09:36:36.086+00:00,1154,83753,79225.02061426885,70076.40690522277,171748.032778267,122969.23970809457,115381.33655564029,104854.13430382422,143137.17402662922,127761.47607105684,TASK2
2026-05-26T09:36:36.086+00:00,1154,83754,79223.47834390143,70079.62555642433,171750.9832085351,122971.65369649573,115376.03919220438,104856.81651315886,143135.09531439486,127760.47024255634,TASK2
2026-05-26T09:36:36.086+00:00,1154,83755,79223.47834390143,70079.62555642433,171751.7878713355,122975.67701049769,115376.5756340713,104858.6940596931,143134.89414869476,127760.00085592279,TASK2
2026-05-26T09:36:36.086+00:00,1154,83756,79224.28300670182,70074.32819298843,171746.75872883305,122975.94523143115,115375.56980557082,104859.49872249349,143133.35187832735,127764.56061179168,TASK2
2026-05-26T09:36:36.086+00:00,1154,83757,79227.23343696992,70073.85880635487,171744.41179566525,122975.47584479759,115377.1791311716,104858.22467305954,143134.69298299466,127767.51104205978,TASK2
2026-05-26T09:36:36.086+00:00,1154,83758,79230.72030910496,70073.85880635487,171746.55756313296,122976.54872853144,115377.71557303853,104854.00019335748,143133.15071262725,127766.77343449274,TASK2
2026-05-26T09:36:36.086+00:00,1154,83759,79232.59785563921,70072.58475692091,171750.04443526798,122977.08517039838,115375.36863987072,104853.79902765738,143131.8766631933,127767.57809729314,TASK2
2026-05-26T09:36:36.086+00:00,1154,83760,79232.12846900563,70072.38359122082,171751.9219818022,122975.00645816403,115374.63103230369,104853.79902765738,143131.13905562626,127765.23116412533,TASK2
2026-05-26T09:36:36.086+00:00,1154,83761,79228.17221023705,70072.38359122082,171750.11149050135,122977.4204465652,115374.89925323716,104857.82234165934,143130.40144805925,127764.76177749177,TASK2
2026-05-26T09:36:36.086+00:00,1154,83762,79228.17221023705,70068.96377431914,171748.8374410674,122980.10265589984,115375.43569510408,104859.96810912705,143130.20028235915,127765.56644029215,TASK2
2026-05-26T09:36:36.086+00:00,1154,83763,79235.95061730749,70066.34862021788,171748.36805443384,122979.36504833282,115378.65434630564,104860.50455099398,143131.27316609301,127766.37110309255,TASK2
2026-05-26T09:36:36.086+00:00,1154,83764,79238.36460570867,70069.29905048598,171747.6304468668,122980.43793206668,115381.8729975072,104861.0409928609,143136.10114289535,127764.02416992474,TASK2
2026-05-26T09:36:36.086+00:00,1154,83765,79238.63282664213,70071.71303888714,171745.81995556594,122979.16388263273,115381.8729975072,104862.11387659477,143135.36353532833,127762.75012049079,TASK2
2026-05-26T09:36:36.086+00:00,1154,83766,79237.35877720818,70068.56144291896,171742.93658053118,122975.74406573105,115380.3307271398,104859.76694342695,143130.33439282587,127758.25741985528,TASK2
2026-05-26T09:36:36.086+00:00,1154,83767,79238.23049524194,70072.24948075408,171742.60130436436,122975.27467909749,115382.8788260077,104857.28589979242,143128.9262329252,127755.70932098737,TASK2
2026-05-26T09:36:36.086+00:00,1154,83768,79239.30337897579,70070.43898945319,171742.60130436436,122971.85486219583,115384.21993067503,104853.06142009037,143124.16531135622,127742.09710861409,TASK2
2026-05-26T09:36:36.086+00:00,1154,83769,79240.91270457658,70070.97543132013,171745.81995556594,122972.92774592969,115383.21410217453,104854.40252475768,143119.40438978723,127742.36532954755,TASK2
2026-05-26T09:36:36.086+00:00,1154,83770,79238.2975504753,70075.535187189,171743.47302239813,122974.80529246393,115378.98962247248,104857.08473409232,143118.39856128674,127742.63355048101,TASK2
2026-05-26T09:36:36.086+00:00,1154,83771,79235.41417544057,70072.92003308774,171739.51676362954,122977.2192808651,115380.59894807325,104858.96228062657,143118.19739558664,127740.55483824667,TASK2
2026-05-26T09:36:36.086+00:00,1154,83772,79235.21300974047,70067.62266965183,171740.85786829685,122983.38836233478,115380.1295614397,104860.30338529388,143121.95248865514,127739.01256787925,TASK2
2026-05-26T09:36:36.086+00:00,1154,83773,79237.62699814164,70062.86174808285,171743.80829856495,122989.8256647379,115380.66600330663,104859.02933585993,143128.12157012481,127743.03588188121,TASK2
2026-05-26T09:36:36.086+00:00,1154,83774,79238.43166094203,70070.37193421983,171746.22228696613,122992.50787407254,115385.49398010898,104861.71154519457,143132.68132599368,127744.645207482,TASK2
2026-05-26T09:36:36.086+00:00,1154,83775,79232.59785563921,70083.78298089301,171746.22228696613,122988.28339437049,115384.48815160849,104860.43749576062,143132.94954692715,127745.98631214931,TASK2
2026-05-26T09:36:36.086+00:00,1154,83776,79236.08472777423,70078.75383839058,171743.87535379833,122984.59535653536,115384.28698590839,104857.01767885895,143133.75420972754,127751.88717268551,TASK2
2026-05-26T09:36:36.086+00:00,1154,83777,79240.10804177618,70070.77426562003,171738.30976942895,122985.93646120268,115385.6280905757,104855.47540849153,143135.63175626178,127752.69183548591,TASK2
2026-05-26T09:36:36.086+00:00,1154,83778,79239.10221327569,70071.04248655349,171738.57799036242,122983.3213071014,115386.4327533761,104852.05559158987,143138.31396559643,127753.76471921976,TASK2
2026-05-26T09:36:36.086+00:00,1154,83779,79239.63865514263,70072.11537028734,171742.86952529784,122983.3213071014,115389.65140457766,104855.00602185797,143142.8737214653,127755.37404482054,TASK2
2026-05-26T09:36:36.086+00:00,1154,83780,79242.32086447725,70070.84132085339,171743.40596716476,122988.41750483721,115394.21116044655,104860.90688239418,143146.6288145338,127760.47024255634,TASK2
2026-05-26T09:36:36.086+00:00,1154,83781,79238.0963847752,70065.54395741748,171739.71792932964,122992.70903977264,115388.91379701064,104865.1984173296,143140.5267882975,127757.31864658816,TASK2
2026-05-26T09:36:36.086+00:00,1154,83782,79234.14012600662,70061.5876986489,171735.76167056104,122990.6303275383,115387.10330570975,104863.11970509525,143133.88832019427,127752.82594595263,TASK2
2026-05-26T09:36:36.086+00:00,1154,83783,79230.45208817149,70073.12119878783,171736.56633336144,122983.45541756814,115384.48815160849,104858.62700445973,143132.34604982685,127751.28367558522,TASK2
2026-05-26T09:36:36.086+00:00,1154,83784,79235.81650684077,70075.80340812248,171741.12608923033,122983.25425186804,115386.90214000965,104857.35295502578,143133.95537542764,127755.03876865371,TASK2
2026-05-26T09:36:36.086+00:00,1154,83785,79242.52203017735,70073.1882540212,171744.8811822988,122989.95977520464,115387.17036094311,104861.37626902774,143129.99911665905,127755.03876865371,TASK2
2026-05-26T09:36:36.086+00:00,1154,83786,79241.2479807434,70070.57309991993,171743.33891193138,122991.56910080541,115386.70097430956,104862.18093182813,143129.79795095895,127750.5460680182,TASK2
2026-05-26T09:36:36.086+00:00,1154,83787,79237.55994290828,70069.56727141944,171743.33891193138,122991.36793510531,115389.3831836442,104857.42001025914,143131.6754974932,127746.05336738267,TASK2
2026-05-26T09:36:36.086+00:00,1154,83788,79236.01767254087,70074.66346915525,171748.16688873374,122991.63615603877,115390.72428831151,104857.42001025914,143131.6754974932,127745.85220168257,TASK2
2026-05-26T09:36:36.086+00:00,1154,83789,79243.52785867784,70080.83255062491,171753.26308646955,122996.19591190766,115392.06539297884,104859.83399866032,143128.523901525,127746.12042261605,TASK2
2026-05-26T09:36:36.086+00:00,1154,83790,79247.28295174634,70082.17365529224,171756.74995860457,122997.80523750845,115392.60183484576,104861.17510332764,143125.64052649026,127749.07085288415,TASK2
2026-05-26T09:36:36.086+00:00,1154,83791,79247.81939361326,70075.80340812248,171756.74995860457,122996.79940900796,115392.40066914566,104860.70571669408,143131.54138702646,127749.87551568453,TASK2
2026-05-26T09:36:36.086+00:00,1154,83792,79249.6969401475,70072.11537028734,171755.74413010408,122997.06762994142,115392.66889007912,104858.62700445973,143132.34604982685,127748.06502438366,TASK2
2026-05-26T09:36:36.086+00:00,1154,83793,79252.11092854869,70075.87046335584,171755.2747434705,122999.48161834259,115394.00999474645,104860.50455099398,143132.34604982685,127744.10876561506,TASK2
2026-05-26T09:36:36.086+00:00,1154,83794,79251.17215528156,70077.68095465672,171752.3243132024,122997.33585087488,115394.41232614664,104863.45498126208,143134.69298299466,127746.18747784941,TASK2
2026-05-26T09:36:36.086+00:00,1154,83795,79249.09344304721,70087.87335012834,171748.09983350037,122993.3795921063,115391.79717204536,104864.25964406248,143137.64341326276,127746.9921406498,TASK2
2026-05-26T09:36:36.086+00:00,1154,83796,79247.28295174634,70087.13574256131,171746.28934219948,122994.18425490668,115388.10913421024,104864.7960859294,143141.39850633126,127753.42944305293,TASK2
2026-05-26T09:36:36.086+00:00,1154,83797,79248.62405641365,70079.96083259115,171748.4351096672,122996.06180144093,115389.98668074449,104866.40541153018,143141.66672726473,127752.69183548591,TASK2
2026-05-26T09:36:36.086+00:00,1154,83798,79247.88644884664,70078.6867831572,171750.31265620145,122997.13468517478,115392.9371110126,104869.8922836652,143141.93494819818,127753.4964982863,TASK2
2026-05-26T09:36:36.086+00:00,1154,83799,79244.73485287844,70085.92874836073,171747.69750210017,122997.13468517478,115391.39484064517,104872.30627206639,143136.90580569574,127745.51692551575,TASK2
2026-05-26T09:36:36.086+00:00,1154,83800,79240.51037317638,70090.22028329615,171744.54590613197,122999.81689450942,115390.92545401161,104870.4957807655,143136.43641906217,127740.21956207984,TASK2
2026-05-26T09:36:36.086+00:00,1154,83801,79244.53368717834,70079.55850119096,171742.46719389764,123000.62155730982,115390.72428831151,104864.12553359574,143139.92329119722,127747.46152728336,TASK2
2026-05-26T09:36:36.411+00:00,1155,83802,79248.28878024683,70077.21156802315,171740.12026072983,122995.05597294045,115386.49980860946,104861.77860042793,143136.50347429555,127742.43238478091,TASK2
2026-05-26T09:36:36.411+00:00,1155,83803,79246.47828894595,70083.11242855935,171742.534249131,122992.70903977264,115386.0304219759,104860.23633006052,143135.49764579505,127740.62189348004,TASK2
2026-05-26T09:36:36.411+00:00,1155,83804,79247.5511726798,70083.11242855935,171747.09400499988,122995.39124910727,115391.9312825121,104861.0409928609,143143.2760528655,127745.44987028239,TASK2
2026-05-26T09:36:36.411+00:00,1155,83805,79251.84270761521,70080.76549539155,171750.04443526798,122998.34167937537,115398.36858491522,104864.7960859294,143148.90869246825,127747.86385868356,TASK2
2026-05-26T09:36:36.411+00:00,1155,83806,79248.42289071355,70078.15034129028,171746.35639743286,122999.14634217577,115395.75343081396,104866.67363246364,143143.8795499658,127746.32158831615,TASK2
2026-05-26T09:36:36.411+00:00,1155,83807,79239.90687607609,70074.99874532208,171741.05903399695,122997.60407180835,115389.91962551112,104862.71737369505,143131.60844225984,127736.73268994481,TASK2
2026-05-26T09:36:36.411+00:00,1155,83808,79240.44331794302,70083.045373326,171739.78498456298,122997.60407180835,115384.62226207521,104861.71154519457,143127.38396255777,127729.82600090813,TASK2
2026-05-26T09:36:36.411+00:00,1155,83809,79242.0526435438,70089.21445479566,171740.32142642993,122998.40873460873,115382.54354984088,104863.32087079535,143128.18862535816,127729.62483520803,TASK2
2026-05-26T09:36:36.411+00:00,1155,83810,79241.0468150433,70086.33107976092,171739.31559792944,122997.67112704171,115380.19661667307,104863.11970509525,143126.3781340573,127728.08256484062,TASK2
2026-05-26T09:36:36.411+00:00,1155,83811,79242.65614064409,70084.25236752658,171737.23688569508,122997.46996134162,115377.58146257179,104861.57743472783,143124.56764275642,127727.61317820704,TASK2
