timestamp_utc,packet_index,sample_index,AF3,AF4,F3,F4,FC5,FC6,O2,O1,label
2026-05-26T09:35:22.900+00:00,937,65427,74439.69094034325,65276.4591904234,180813.63210840608,119780.69630631164,113066.92517601552,93568.53736263959,143520.2605748487,125281.90765165181,TASK1
2026-05-26T09:35:22.900+00:00,937,65428,74437.34400717544,65271.43004792095,180811.55339617172,119782.84207377936,113066.92517601552,93574.17000224233,143523.2110051168,125279.02427661708,TASK1
2026-05-26T09:35:22.900+00:00,937,65429,74433.65596934031,65283.76821086028,180810.54756767122,119785.52428311399,113069.3391644167,93568.06797600603,143529.38008658646,125284.65691621981,TASK1
2026-05-26T09:35:22.900+00:00,937,65430,74436.06995774149,65285.91397832799,180810.54756767122,119784.51845461351,113067.79689404927,93571.28662720759,143528.91069995292,125282.04176211855,TASK1
2026-05-26T09:35:22.900+00:00,937,65431,74440.36149267691,65281.689498625936,180812.9615560724,119788.00532674853,113071.01554525085,93580.94258081229,143526.83198771856,125280.49949175114,TASK1
2026-05-26T09:35:22.900+00:00,937,65432,74444.1165857454,65290.8090103637,180809.27351823729,119790.15109421624,113071.28376618431,93595.15829028586,143530.58708078705,125282.37703828537,TASK1
2026-05-26T09:35:22.900+00:00,937,65433,74443.11075724491,65303.95183610342,180803.97615480138,119787.53594011498,113071.55198711777,93591.7384733842,143533.2692901217,125282.17587258527,TASK1
2026-05-26T09:35:22.900+00:00,937,65434,74445.25652471262,65305.5611617042,180803.77498910128,119791.02281225,113075.30708018626,93592.81135711806,143529.84947322003,125278.21961381669,TASK1
2026-05-26T09:35:22.900+00:00,937,65435,74446.59762937995,65295.97226333288,180809.67584963748,119796.65545185274,113075.10591448616,93594.95712458577,143529.11186565302,125275.60445971541,TASK1
2026-05-26T09:35:22.900+00:00,937,65436,74441.5684868775,65292.016004564284,180811.0169543048,119796.9236727862,113072.75898131836,93587.78221461561,143526.7649324852,125275.40329401533,TASK1
2026-05-26T09:35:22.900+00:00,937,65437,74443.44603341175,65297.1122023001,180804.9149280685,119803.36097518932,113068.80272254976,93589.65976114986,143520.93112718235,125265.27795377707,TASK1
2026-05-26T09:35:22.900+00:00,937,65438,74446.53057414657,65302.47662096937,180804.04321003472,119778.61759407731,113067.66278358255,93596.29822925308,143521.53462428265,125263.60157294292,TASK1
2026-05-26T09:35:22.900+00:00,937,65439,74449.21278348121,65299.05680406771,180803.03738153426,119780.76336154502,113060.4878736124,93594.21951701873,143514.09149337903,125258.57243044047,TASK1
2026-05-26T09:35:22.900+00:00,937,65440,74451.35855094892,65295.63698716605,180802.5679949007,119787.20066394814,113058.6773823115,93592.40902571786,143512.8174439451,125255.9572763392,TASK1
2026-05-26T09:35:22.900+00:00,937,65441,74454.84542308394,65290.87606559707,180802.5679949007,119794.44262915166,113062.16425444654,93607.16117705837,143517.377199814,125261.32169500848,TASK1
2026-05-26T09:35:22.900+00:00,937,65442,74454.84542308394,65289.60201616312,180801.83038733367,119797.39305941976,113062.96891724694,93599.98626708821,143516.63959224694,125262.93102060926,TASK1
2026-05-26T09:35:22.900+00:00,937,65443,74452.76671084961,65292.016004564284,180797.6059076316,119786.19483544765,113062.2313096799,93592.00669431766,143515.63376374645,125269.10010207893,TASK1
2026-05-26T09:35:22.900+00:00,937,65444,74449.88333581487,65286.98686206184,180791.77210232877,119785.18900694717,113058.54327184478,93596.29822925308,143511.67750497788,125273.12341608088,TASK1
2026-05-26T09:35:22.900+00:00,937,65445,74446.99996078013,65285.176370760964,180785.93829702595,119786.79833254794,113047.8814897396,93601.93086885582,143504.23437407427,125267.28961077804,TASK1
2026-05-26T09:35:22.900+00:00,937,65446,74444.38480667886,65285.98103356136,180779.29982892273,119790.0169837495,113043.12056817062,93608.6363921924,143499.74167343872,125265.47911947717,TASK1
2026-05-26T09:35:22.900+00:00,937,65447,74441.7696525776,65283.90232132701,180774.00246548682,119792.43097215069,113042.11473967013,93607.36234275845,143496.0536356036,125259.64531417433,TASK1
2026-05-26T09:35:22.900+00:00,937,65448,74441.7696525776,65288.730298129354,180770.85086951862,119790.88870178327,113042.91940247052,93601.26031652217,143495.8524699035,125257.03016007306,TASK1
2026-05-26T09:35:22.900+00:00,937,65449,74441.30026594404,65298.118030800586,180769.04037821773,119790.4193151497,113044.26050713783,93606.35651425798,143497.4617955043,125257.03016007306,TASK1
2026-05-26T09:35:22.900+00:00,937,65450,74446.12824274637,65304.01889133679,180774.13657595354,119804.63502462328,113046.94271647248,93618.42645626384,143499.87578390547,125261.32169500848,TASK1
2026-05-26T09:35:22.900+00:00,937,65451,74449.07867301448,65300.59907443512,180780.84209929014,119799.8741030543,113049.89314674058,93609.10577882598,143504.43553977436,125262.93102060926,TASK1
2026-05-26T09:35:22.900+00:00,937,65452,74446.46351891321,65297.44747846693,180782.18320395745,119792.43097215069,113050.16136767404,93607.56350845855,143510.0681793771,125270.17298581278,TASK1
2026-05-26T09:35:22.900+00:00,937,65453,74451.29149571556,65298.78858313424,180779.83627078964,119791.96158551713,113050.4295886075,93611.05038059359,143514.09149337903,125276.6102882159,TASK1
2026-05-26T09:35:22.900+00:00,937,65454,74458.26523998562,65298.319196500684,180777.22111668836,119796.78956231946,113050.4295886075,93618.2923457971,143516.23726084674,125276.6102882159,TASK1
2026-05-26T09:35:22.900+00:00,937,65455,74459.33812371947,65299.12385930108,180778.29400042223,119800.81287632142,113051.23425140789,93614.33608702851,143513.35388581202,125273.72691318118,TASK1
2026-05-26T09:35:22.900+00:00,937,65456,74452.43143468277,65300.46496396839,180777.28817192174,119805.64085312377,113048.35087637317,93616.75007542969,143512.88449917844,125269.23421254565,TASK1
2026-05-26T09:35:22.900+00:00,937,65457,74449.01161778111,65295.97226333288,180772.25902941928,119811.27349272651,113045.19928040497,93616.75007542969,143513.68916197884,125267.15550031132,TASK1
2026-05-26T09:35:22.900+00:00,937,65458,74447.73756834716,65291.2113417639,180767.22988691684,119816.63791139578,113043.92523097101,93619.16406383086,143510.8057869441,125270.37415151288,TASK1
2026-05-26T09:35:22.900+00:00,937,65459,74444.85419331242,65293.357109231605,180766.49227934983,119824.95276033315,113044.99811470487,93614.67136319535,143506.3130863086,125270.9105933798,TASK1
2026-05-26T09:35:22.900+00:00,937,65460,74443.31192294501,65300.59907443512,180766.49227934983,119832.99938833706,113044.52872807131,93620.03578186462,143507.92241190939,125273.59280271444,TASK1
2026-05-26T09:35:22.900+00:00,937,65461,74446.26235321311,65298.78858313424,180768.63804681753,119812.41343169373,113048.82026300672,93612.86087189446,143513.28683057864,125277.88433764986,TASK1
2026-05-26T09:35:22.900+00:00,937,65462,74445.79296657955,65299.32502500117,180773.73424455334,119822.33760623189,113051.50247234135,93618.76173243066,143518.65124924792,125281.10298885142,TASK1
2026-05-26T09:35:22.900+00:00,937,65463,74447.6705131138,65296.709870899904,180773.06369221967,119829.9819028356,113052.64241130858,93625.66842146736,143522.33928708304,125284.92513715327,TASK1
2026-05-26T09:35:22.900+00:00,937,65464,74455.44892018424,65293.5582749317,180770.44853811842,119830.786565636,113054.51995784283,93634.51971227166,143523.4121708169,125293.23998609066,TASK1
2026-05-26T09:35:22.900+00:00,937,65465,74455.44892018424,65294.3629377321,180773.66718931997,119831.32300750291,113057.47038811093,93621.17572083184,143519.99235391524,125287.13795985436,TASK1
2026-05-26T09:35:22.900+00:00,937,65466,74456.79002485157,65296.776926133265,180776.34939865462,119827.6349696678,113052.9776874754,93613.73258992823,143520.79701671563,125282.9134801523,TASK1
2026-05-26T09:35:22.900+00:00,937,65467,74455.51597541761,65300.80024013522,180778.49516612233,119823.6787108992,113051.43541710799,93625.26609006716,143525.89321445144,125287.47323602118,TASK1
2026-05-26T09:35:22.900+00:00,937,65468,74454.51014691712,65303.48244946986,180775.88001202105,119825.8244783669,113052.7765217753,93631.16695060336,143528.57542378607,125292.569433757,TASK1
2026-05-26T09:35:22.900+00:00,937,65469,74454.77836785058,65303.281283769764,180770.04620671822,119831.45711796965,113054.38584737609,93640.28646234113,143527.83781621905,125299.54317802704,TASK1
2026-05-26T09:35:22.900+00:00,937,65470,74458.53346091908,65299.861466868104,180772.99663698633,119837.89442037277,113058.94560324498,93627.7471337017,143530.25180462023,125307.85802696443,TASK1
2026-05-26T09:35:22.900+00:00,937,65471,74464.9707633222,65302.54367620274,180771.72258755236,119843.52705997552,113062.70069631346,93638.20775010678,143535.07978142257,125311.61312003291,TASK1
2026-05-26T09:35:22.900+00:00,937,65472,74461.28272548708,65306.03054833777,180769.91209625147,119843.32589427542,113064.57824284771,93641.42640130834,143536.42088608988,125312.4177828333,TASK1
2026-05-26T09:35:22.900+00:00,937,65473,74457.32646671848,65315.15006007553,180765.9558374829,119845.20344080967,113062.2313096799,93646.52259904415,143533.2692901217,125304.70643099623,TASK1
2026-05-26T09:35:22.900+00:00,937,65474,74454.97953355068,65318.63693221056,180760.92669498044,119841.783623908,113059.0797137117,93640.42057280785,143534.34217385555,125306.04753566354,TASK1
2026-05-26T09:35:22.900+00:00,937,65475,74458.46640568571,65316.02177810929,180759.92086647995,119842.05184484147,113058.8785480116,93639.1465233739,143529.84947322003,125301.28661409457,TASK1
2026-05-26T09:35:22.900+00:00,937,65476,74463.29438248805,65313.67484494148,180763.13951768153,119844.46583324263,113058.8785480116,93643.70627924279,143522.6745632499,125290.35661105592,TASK1
2026-05-26T09:35:22.900+00:00,937,65477,74462.0203330541,65309.18214430596,180761.59724731412,119843.99644660908,113054.65406830955,93643.70627924279,143517.1089788805,125289.6190034889,TASK1
2026-05-26T09:35:22.900+00:00,937,65478,74460.74628362014,65309.45036523943,180755.22700014434,119853.3841792803,113053.64823980907,93640.28646234113,143515.03026664618,125290.15544535582,TASK1
2026-05-26T09:35:22.900+00:00,937,65479,74462.35560922093,65310.79146990675,180752.07540417614,119857.40749328226,113051.56952757473,93631.50222677019,143515.83492944654,125290.15544535582,TASK1
2026-05-26T09:35:22.900+00:00,937,65480,74462.62383015439,65301.739013402344,180755.5622763112,119832.79822263696,113053.1788531755,93637.40308730639,143512.68333347834,125292.03299189007,TASK1
2026-05-26T09:35:22.900+00:00,937,65481,74457.05824578503,65299.660301168005,180761.73135778084,119840.04018784048,113049.49081534038,93644.6450525099,143508.99529564322,125285.39452378685,TASK1
2026-05-26T09:35:22.900+00:00,937,65482,74456.58885915147,65311.19380130694,180760.99375021382,119840.84485064087,113046.60744030564,93638.27480534014,143507.7212462093,125285.6627447203,TASK1
2026-05-26T09:35:22.900+00:00,937,65483,74452.36437944941,65315.21711530889,180753.5506193102,119836.8885918723,113044.79694900477,93637.00075590619,143506.98363864227,125289.4178377888,TASK1
2026-05-26T09:35:22.900+00:00,937,65484,74448.67634161428,65312.0655193407,180749.86258147508,119834.80987963795,113045.60161180516,93639.1465233739,143508.32474330958,125294.51403552461,TASK1
2026-05-26T09:35:22.900+00:00,937,65485,74452.16321374931,65308.9139233725,180747.78386924072,119834.80987963795,113046.13805367208,93645.31560484358,143507.855356676,125298.00090765963,TASK1
2026-05-26T09:35:22.900+00:00,937,65486,74453.77253935009,65306.835211138154,180748.32031110764,119839.36963550682,113049.89314674058,93647.19315137781,143506.84952817552,125300.68311699427,TASK1
2026-05-26T09:35:22.900+00:00,937,65487,74452.76671084961,65307.10343207162,180747.8509244741,119837.82736513941,113053.11179794214,93646.72376474425,143506.64836247542,125305.24287286315,TASK1
2026-05-26T09:35:22.900+00:00,937,65488,74446.39646367985,65307.90809487201,180743.62644477203,119840.77779540751,113048.08265543969,93655.84327648202,143511.2081183443,125306.315756597,TASK1
2026-05-26T09:35:22.900+00:00,937,65489,74451.22444048218,65311.126746073576,180742.3523953381,119847.75153967757,113049.15553917355,93659.86659048397,143517.377199814,125310.0708496655,TASK1
2026-05-26T09:35:22.900+00:00,937,65490,74461.34978072044,65316.02177810929,180748.99086344132,119840.37546400732,113058.6773823115,93653.16106714739,143520.4617405488,125315.09999216795,TASK1
2026-05-26T09:35:22.900+00:00,937,65491,74459.2710684861,65303.75067040332,180751.94129370942,119840.37546400732,113059.21382417844,93656.64793928241,143517.84658644753,125316.44109683526,TASK1
2026-05-26T09:35:22.900+00:00,937,65492,74455.31480971751,65298.453306967414,180750.399023342,119836.15098430526,113057.93977474449,93654.83744798152,143513.6221067455,125315.70348926824,TASK1
2026-05-26T09:35:22.900+00:00,937,65493,74459.60634465293,65310.52324897328,180746.71098550688,119836.15098430526,113057.47038811093,93656.71499451577,143509.6658479769,125313.35655610044,TASK1
2026-05-26T09:35:22.900+00:00,937,65494,74458.60051615244,65316.96055137641,180742.21828487137,119835.94981860516,113057.00100147736,93654.9045032149,143504.1002636075,125308.59563453145,TASK1
2026-05-26T09:35:22.900+00:00,937,65495,74452.76671084961,65318.033435110265,180742.48650580482,119838.6320279398,113054.11762644263,93660.00070095071,143500.14400483892,125301.95716642823,TASK1
2026-05-26T09:35:22.900+00:00,937,65496,74456.79002485157,65319.91098164451,180742.28534010472,119855.79816768148,113051.77069327483,93661.34180561802,143495.6513042034,125296.12336112538,TASK1
2026-05-26T09:35:22.900+00:00,937,65497,74461.88622258737,65311.6631879405,180743.8946657055,119847.28215304401,113054.184681676,93664.29223588613,143494.6454757029,125290.28955582256,TASK1
2026-05-26T09:35:22.900+00:00,937,65498,74460.88039408688,65303.415394236494,180742.3523953381,119841.18012680771,113052.10596944165,93665.90156148691,143495.98658037026,125292.70354422372,TASK1
2026-05-26T09:35:22.900+00:00,937,65499,74459.60634465293,65298.65447266751,180737.85969470258,119849.49497574508,113052.37419037512,93661.14063991793,143497.8641269045,125292.70354422372,TASK1
2026-05-26T09:35:22.900+00:00,937,65500,74459.87456558639,65306.701100671424,180739.46902030337,119852.71362694664,113057.73860904439,93667.04150045413,143496.59007747055,125286.8697389209,TASK1
2026-05-26T09:35:22.900+00:00,937,65501,74457.25941148512,65321.98969387885,180743.22411337183,119853.51828974704,113061.49370211289,93669.18726792184,143500.07694960557,125297.59857625944,TASK1
2026-05-26T09:35:23.206+00:00,938,65502,74456.79002485157,65318.30165604373,180745.1016599061,119847.68448444421,113058.07388521121,93667.91321848788,143500.6133914725,125301.62189026139,TASK1
2026-05-26T09:35:23.206+00:00,938,65503,74462.95910632123,65314.34539727514,180739.26785460327,119843.72822567562,113056.5316148438,93662.34763411852,143500.14400483892,125300.6160617609,TASK1
2026-05-26T09:35:23.206+00:00,938,65504,74461.4168359538,65309.852696639624,180740.3407383371,119843.25883904206,113057.3362776442,93663.95695971929,143505.5084235082,125305.98048043018,TASK1
2026-05-26T09:35:23.206+00:00,938,65505,74460.67922838678,65298.92269360098,180747.31448260718,119849.96436237864,113058.6773823115,93669.58959932203,143512.48216777827,125310.00379443214,TASK1
2026-05-26T09:35:23.206+00:00,938,65506,74457.79585335204,65309.1150890726,180748.92380820794,119858.01099038255,113060.55492884576,93666.70622428729,143516.50548178022,125314.56355030101,TASK1
2026-05-26T09:35:23.206+00:00,938,65507,74459.94162081977,65310.18797280645,180746.3086541067,119855.39583628128,113065.11468471464,93662.74996551871,143517.57836551408,125317.51398056911,TASK1
2026-05-26T09:35:23.206+00:00,938,65508,74464.50137668864,65309.718586172894,180745.3028256062,119854.65822871425,113062.49953061336,93674.01524472419,143514.69499047933,125314.09416366745,TASK1
2026-05-26T09:35:23.206+00:00,938,65509,74465.03781855557,65315.08300484216,180741.88300870452,119863.50951951856,113060.95726024595,93682.86653552849,143512.34805731152,125312.28367236658,TASK1
2026-05-26T09:35:23.206+00:00,938,65510,74466.37892322289,65314.34539727514,180742.9558924384,119865.3870660528,113060.75609454585,93681.860707028,143513.15272011192,125312.08250666648,TASK1
2026-05-26T09:35:23.206+00:00,938,65511,74465.10487378894,65315.15006007553,180745.1016599061,119856.60283048188,113060.55492884576,93676.02690172516,143513.4209410454,125310.00379443214,TASK1
2026-05-26T09:35:23.206+00:00,938,65512,74461.68505688728,65313.60778970811,180740.60895927058,119856.87105141534,113057.1351119441,93676.83156452555,143512.4151125449,125307.38864033086,TASK1
2026-05-26T09:35:23.206+00:00,938,65513,74464.3672662219,65311.52907747377,180737.1891423689,119859.55326074998,113056.39750437708,93680.58665759405,143511.14106311093,125309.2661868651,TASK1
2026-05-26T09:35:23.206+00:00,938,65514,74467.31769649,65304.62238843708,180737.72558423583,119859.35209504988,113052.44124560848,93685.68285532985,143510.4034555439,125313.28950086706,TASK1
2026-05-26T09:35:23.206+00:00,938,65515,74464.70254238874,65308.37748150557,180735.91509293497,119862.30252531798,113051.16719617453,93679.3126081601,143504.83787117453,125312.01545143311,TASK1
2026-05-26T09:35:23.206+00:00,938,65516,74463.42849295479,65311.05969084021,180735.17748536792,119878.39578132579,113049.89314674058,93679.58082909355,143501.1498333394,125304.57232052949,TASK1
2026-05-26T09:35:23.206+00:00,938,65517,74463.96493482172,65308.7127576724,180735.71392723487,119858.8827084163,113050.16136767404,93679.37966339345,143499.33934203853,125301.68894549477,TASK1
2026-05-26T09:35:23.206+00:00,938,65518,74460.54511792005,65312.19962980743,180730.95300566588,119856.80399618197,113047.54621357277,93675.42340462487,143499.33934203853,125304.10293389593,TASK1
2026-05-26T09:35:23.206+00:00,938,65519,74465.64131565586,65313.80895540821,180728.60607249808,119870.21504285515,113042.24885013686,93684.54291636264,143501.2168885728,125305.71225949672,TASK1
2026-05-26T09:35:23.206+00:00,938,65520,74469.12818779089,65311.19380130694,180730.4836190323,119875.31124059096,113042.04768443677,93691.24843969922,143504.7037607078,125308.12624789789,TASK1
2026-05-26T09:35:23.206+00:00,938,65521,74469.06113255753,65316.424109509484,180731.82472369965,119874.6406882573,113044.19345190447,93696.14347173493,143506.64836247542,125307.38864033086,TASK1
2026-05-26T09:35:23.206+00:00,938,65522,74469.59757442445,65325.00717938032,180727.3320230641,119880.80976972697,113042.65118153706,93692.72365483327,143504.5696502411,125307.18747463076,TASK1
2026-05-26T09:35:23.206+00:00,938,65523,74470.6704581583,65324.00135087983,180725.52153176325,119879.26749935956,113045.86983273862,93688.49917513122,143511.8116154446,125313.35655610044,TASK1
2026-05-26T09:35:23.206+00:00,938,65524,74472.81622562601,65326.68356021447,180728.7401829648,119881.68148776072,113047.4791583394,93700.56911713709,143519.3218015816,125315.7705445016,TASK1
2026-05-26T09:35:23.206+00:00,938,65525,74472.078618059,65328.82932768218,180731.15417136598,119886.77768549653,113047.4791583394,93703.51954740519,143520.126464382,125316.84342823546,TASK1
2026-05-26T09:35:23.206+00:00,938,65526,74470.80456862504,65327.28705731476,180731.15417136598,119892.1421041658,113043.79112050428,93702.24549797123,143520.6629062489,125315.03293693459,TASK1
2026-05-26T09:35:23.206+00:00,938,65527,74469.26229825763,65327.55527824823,180727.46613353086,119887.11296166337,113038.49375706837,93700.16678573689,143522.80867371662,125320.93379747077,TASK1
2026-05-26T09:35:23.206+00:00,938,65528,74466.64714415635,65327.35411254813,180718.95011889338,119887.91762446375,113032.928172699,93705.53120440617,143527.10020865203,125325.76177427312,TASK1
2026-05-26T09:35:23.206+00:00,938,65529,74469.06113255753,65323.39785377954,180713.38453452403,119893.28204313303,113033.46461456592,93705.79942533963,143527.10020865203,125328.44398360777,TASK1
2026-05-26T09:35:23.206+00:00,938,65530,74463.22732725469,65318.36871127709,180716.60318572557,119894.8913687338,113031.92234419851,93707.67697187388,143521.53462428265,125327.9745969742,TASK1
2026-05-26T09:35:23.206+00:00,938,65531,74469.12818779089,65325.07423461368,180718.48073225984,119912.59395034242,113031.18473663149,93717.33292547856,143521.53462428265,125326.43232660678,TASK1
2026-05-26T09:35:23.206+00:00,938,65532,74476.90659486134,65329.90221141603,180723.0404881287,119909.71057530768,113028.56958253021,93709.88979457495,143527.1672638854,125331.79674527606,TASK1
2026-05-26T09:35:23.206+00:00,938,65533,74477.9794785952,65327.55527824823,180725.45447652988,119887.78351399703,113023.80866096124,93713.9131085769,143523.47922605026,125333.13784994338,TASK1
2026-05-26T09:35:23.206+00:00,938,65534,74477.24187102816,65322.794356679246,180726.7955811972,119892.61149079938,113022.26639059382,93714.7177713773,143518.18186261435,125330.79091677557,TASK1
2026-05-26T09:35:23.206+00:00,938,65535,74476.7724843946,65318.56987697719,180730.2824533322,119897.70768853519,113020.45589929294,93716.863538845,143518.18186261435,125327.63932080737,TASK1
2026-05-26T09:35:23.206+00:00,938,65536,74478.3818099954,65318.36871127709,180733.2328836003,119895.36075536738,113017.5725242582,93699.22801246977,143514.7620457127,125322.34195737146,TASK1
2026-05-26T09:35:23.206+00:00,938,65537,74478.65003092885,65324.00135087983,180733.5011045338,119893.01382219956,113014.95737015693,93706.46997767329,143508.92824040988,125315.9717102017,TASK1
2026-05-26T09:35:23.206+00:00,938,65538,74477.3759814949,65324.00135087983,180731.6906132329,119898.6464618023,113010.73289045488,93716.39415221145,143502.82621417358,125317.84925673595,TASK1
2026-05-26T09:35:23.206+00:00,938,65539,74479.25352802915,65321.92263864549,180730.6847847324,119903.74265953811,113008.11773635361,93710.5603469086,143503.89909790742,125317.11164916892,TASK1
2026-05-26T09:35:23.206+00:00,938,65540,74481.1310745634,65324.87306891359,180729.142514365,119901.12750543685,113007.11190785312,93706.06764627309,143502.35682754,125310.20496013224,TASK1
2026-05-26T09:35:23.206+00:00,938,65541,74478.78414139558,65328.35994104861,180728.9413486649,119904.07793570495,113003.96031188492,93714.114274277,143500.8145571726,125307.58980603096,TASK1
2026-05-26T09:35:23.206+00:00,938,65542,74482.33806876397,65339.0217231538,180733.6352150005,119910.98462474163,113003.69209095146,93722.89850984795,143508.8611851765,125314.76471600111,TASK1
2026-05-26T09:35:23.206+00:00,938,65543,74488.50715023364,65340.899269688045,180737.12208713556,119918.22658994514,113007.44718401995,93734.70023092034,143516.3713713135,125319.86091373692,TASK1
2026-05-26T09:35:23.206+00:00,938,65544,74486.69665893276,65338.01589465331,180737.390308069,119924.66389234828,113003.75914618482,93733.15796055293,143516.63959224694,125316.70931776872,TASK1
2026-05-26T09:35:23.206+00:00,938,65545,74479.25352802915,65323.59901947964,180735.8480377016,119916.95254051119,112996.85245714814,93722.22795751427,143515.365542813,125314.09416366745,TASK1
2026-05-26T09:35:23.206+00:00,938,65546,74482.20395829725,65319.642760711045,180735.6468720015,119905.48609560562,112991.82331464569,93722.49617844775,143512.2139468448,125317.04459393556,TASK1
2026-05-26T09:35:23.206+00:00,938,65547,74483.54506296456,65328.76227244881,180731.95883416638,119911.38695614183,112984.64840467554,93725.98305058277,143508.79412994313,125318.9221404698,TASK1
2026-05-26T09:35:23.206+00:00,938,65548,74481.19812979676,65328.024664881785,180727.46613353086,119911.38695614183,112980.69214590694,93734.56612045362,143505.37431304148,125319.7268032702,TASK1
2026-05-26T09:35:23.206+00:00,938,65549,74480.19230129627,65323.53196424627,180723.77809569574,119907.43069737323,112976.19944527143,93726.58654768307,143507.5200805092,125325.6276638064,TASK1
2026-05-26T09:35:23.206+00:00,938,65550,74482.8745106309,65323.80018517973,180725.65564222998,119904.01088047157,112974.65717490402,93720.2163005133,143505.44136827483,125318.45275383625,TASK1
2026-05-26T09:35:23.206+00:00,938,65551,74480.5275774631,65329.16460384901,180724.381592796,119909.37529914085,112972.84668360313,93724.50783544872,143500.4122257724,125308.59563453145,TASK1
2026-05-26T09:35:23.206+00:00,938,65552,74485.62377519891,65340.16166212102,180723.643985229,119926.54143888253,112967.8175411007,93730.40869598492,143501.2168885728,125311.27784386609,TASK1
2026-05-26T09:35:23.206+00:00,938,65553,74487.50132173316,65337.27828708629,180724.9850898963,119912.92922650924,112968.62220390108,93736.30955652113,143507.6541909759,125315.30115786805,TASK1
2026-05-26T09:35:23.206+00:00,938,65554,74490.45175200125,65336.54067951926,180724.9850898963,119898.78057226904,112969.42686670147,93736.10839082103,143510.8728421775,125317.71514626921,TASK1
2026-05-26T09:35:23.206+00:00,938,65555,74489.44592350077,65336.071292885696,180723.97926139584,119907.09542120641,112966.8117126002,93738.79060015567,143511.14106311093,125320.39735560385,TASK1
2026-05-26T09:35:23.206+00:00,938,65556,74485.75788566563,65333.99258065136,180723.77809569574,119914.87382827686,112965.00122129932,93733.76145765322,143514.3597143125,125321.20201840425,TASK1
2026-05-26T09:35:23.206+00:00,938,65557,74488.70831593373,65336.67478998599,180726.1920840969,119919.7018050792,112965.80588409971,93737.24832978824,143518.38302831445,125321.47023933771,TASK1
2026-05-26T09:35:23.206+00:00,938,65558,74492.19518806877,65332.18208935048,180725.1862555964,119921.31113067998,112967.95165156742,93739.93053912288,143519.45591204832,125322.00668120463,TASK1
2026-05-26T09:35:23.206+00:00,938,65559,74491.99402236867,65330.37159804959,180725.72269746335,119919.23241844564,112967.48226493386,93739.19293155587,143511.74456021123,125318.85508523644,TASK1
2026-05-26T09:35:23.206+00:00,938,65560,74486.69665893276,65333.05380738423,180725.9909183968,119919.76886031257,112964.33066896566,93726.38538198297,143500.8145571726,125307.65686126433,TASK1
2026-05-26T09:35:23.206+00:00,938,65561,74486.49549323267,65334.394912051546,180722.57110149515,119914.73971781012,112957.1557589955,93728.53114945068,143498.46762400478,125308.72974499819,TASK1
2026-05-26T09:35:23.206+00:00,938,65562,74491.85991190193,65336.272458585794,180723.37576429555,119920.1041364794,112960.1061892636,93733.35912625302,143502.22271707328,125317.84925673595,TASK1
2026-05-26T09:35:23.211+00:00,938,65563,74495.0785631035,65336.272458585794,180726.05797363017,119927.88254354984,112965.47060793289,93734.43200998688,143504.1002636075,125324.55478007253,TASK1
2026-05-26T09:35:23.211+00:00,938,65564,74488.97653686721,65328.29288581525,180724.51570326276,119921.24407544662,112965.00122129932,93734.70023092034,143504.9049264079,125325.09122193947,TASK1
2026-05-26T09:35:23.211+00:00,938,65565,74489.51297873413,65330.975095149886,180721.90054916148,119925.8038313155,112960.77674159726,93755.88968466397,143505.7095892083,125323.54895157205,TASK1
2026-05-26T09:35:23.211+00:00,938,65566,74491.12230433492,65330.50570851633,180722.70521196187,119936.26444772059,112964.53183466576,93757.76723119822,143513.7562172122,125335.08245171099,TASK1
2026-05-26T09:35:23.211+00:00,938,65567,74493.53629273608,65335.8701271856,180724.18042709594,119918.69597657872,112972.17613126947,93739.05882108913,143516.50548178022,125340.11159421343,TASK1
2026-05-26T09:35:23.211+00:00,938,65568,74495.95028113725,65330.30454281623,180721.29705206119,119922.98751151413,112970.09741903513,93749.51943749421,143511.2081183443,125335.61889357792,TASK1
2026-05-26T09:35:23.211+00:00,938,65569,74496.48672300419,65322.05674911222,180717.3407932926,119933.44812791921,112969.35981146811,93760.51649576622,143514.9632114128,125333.80840227703,TASK1
2026-05-26T09:35:23.211+00:00,938,65570,74491.7258014352,65334.66313298501,180717.60901422607,119908.83885727392,112970.96913706888,93754.68269046339,143518.18186261435,125334.61306507743,TASK1
2026-05-26T09:35:23.211+00:00,938,65571,74488.57420546701,65343.24620285585,180718.14545609299,119910.44818287471,112971.77379986928,93758.70600446535,143517.7124759808,125337.56349534553,TASK1
2026-05-26T09:35:23.211+00:00,938,65572,74489.91531013433,65339.289944087264,180718.41367702646,119907.56480783997,112974.18778827046,93763.26576033422,143516.43842654684,125342.39147214788,TASK1
2026-05-26T09:35:23.211+00:00,938,65573,74493.93862413628,65336.67478998599,180717.67606945944,119906.55897933948,112979.28398600627,93771.5806092716,143515.70081897982,125344.26901868211,TASK1
2026-05-26T09:35:23.211+00:00,938,65574,74492.93279563579,65334.327856818185,180715.32913629164,119899.6522903028,112975.32772723767,93768.4290133034,143516.50548178022,125347.21944895021,TASK1
2026-05-26T09:35:23.211+00:00,938,65575,74488.97653686721,65327.95760964842,180719.0842293601,119895.6960315342,112974.85834060411,93766.61852200252,143511.2081183443,125339.23987617968,TASK1
2026-05-26T09:35:23.211+00:00,938,65576,74491.65874620184,65327.48822301486,180719.62067122705,119897.03713620151,112977.00410807182,93775.20159187335,143508.59296424303,125338.50226861265,TASK1
2026-05-26T09:35:23.497+00:00,939,65577,74491.18935956828,65334.99840915184,180718.34662179308,119896.03130770104,112978.61343367261,93778.42024307493,143509.93406891034,125340.64803608035,TASK1
2026-05-26T09:35:23.497+00:00,939,65578,74493.33512703599,65333.72435971789,180718.14545609299,119892.87971173284,112977.60760517212,93773.65932150594,143509.73290321027,125344.67135008231,TASK1
2026-05-26T09:35:23.497+00:00,939,65579,74494.13978983638,65334.26080158482,180721.63232822804,119893.41615359976,112976.0653348047,93785.19282164489,143507.117749109,125344.93957101578,TASK1
2026-05-26T09:35:23.497+00:00,939,65580,74493.13396133589,65341.50276678834,180726.72852596384,119893.95259546669,112975.59594817113,93783.91877221093,143501.5521647396,125340.44687038026,TASK1
2026-05-26T09:35:23.497+00:00,939,65581,74491.05524910154,65341.7709877218,180728.06963063116,119893.21498789966,112976.93705283846,93785.25987687825,143503.1614903404,125343.93374251529,TASK1
2026-05-26T09:35:23.497+00:00,939,65582,74487.36721126642,65342.575650522194,180727.6002439976,119892.20915939918,112977.20527377192,93793.57472581562,143502.9603246403,125341.05036748055,TASK1
2026-05-26T09:35:23.497+00:00,939,65583,74489.78119966759,65337.54650801975,180723.91220616247,119885.03424942902,112976.73588713836,93788.27736237971,143502.7591589402,125339.7763180466,TASK1
2026-05-26T09:35:23.497+00:00,939,65584,74488.77537116711,65336.272458585794,180721.02883112774,119879.46866505966,112971.97496556937,93785.66220827845,143501.7533304397,125332.33318714298,TASK1
2026-05-26T09:35:23.497+00:00,939,65585,74487.23310079968,65337.881784186575,180724.51570326276,119881.88265346082,112971.97496556937,93789.6855222804,143502.02155137318,125328.91337024132,TASK1
2026-05-26T09:35:23.497+00:00,939,65586,74480.05819082953,65338.15000512004,180729.3436800651,119886.17418839624,112973.3160702367,93796.12282468352,143504.1673188409,125328.91337024132,TASK1
2026-05-26T09:35:23.497+00:00,939,65587,74487.03193509959,65341.3686563216,180731.22122659936,119880.60860402687,112974.38895397056,93803.63301082051,143503.1614903404,125330.25447490864,TASK1
2026-05-26T09:35:23.497+00:00,939,65588,74489.98236536769,65339.289944087264,180728.06963063116,119880.87682496033,112973.1149045366,93800.21319391884,143505.03903687463,125335.88711451138,TASK1
2026-05-26T09:35:23.497+00:00,939,65589,74487.09899033296,65338.8205574537,180720.62649972754,119884.63191802883,112972.37729696957,93797.06159795065,143506.38014154197,125339.91042851334,TASK1
2026-05-26T09:35:23.497+00:00,939,65590,74488.97653686721,65332.45031028394,180715.59735722508,119884.43075232873,112972.37729696957,93793.64178104898,143506.64836247542,125342.3244169145,TASK1
2026-05-26T09:35:23.497+00:00,939,65591,74489.51297873413,65334.05963588472,180715.12797059154,119887.64940353029,112969.7621428683,93796.32399038362,143502.9603246403,125336.49061161168,TASK1
2026-05-26T09:35:23.497+00:00,939,65592,74486.36138276593,65344.78847322327,180713.04925835718,119889.52695006454,112969.7621428683,93803.29773465368,143497.93118213787,125336.28944591158,TASK1
2026-05-26T09:35:23.497+00:00,939,65593,74484.01444959812,65343.24620285585,180708.28833678822,119883.6931447617,112970.03036380176,93799.87791775202,143496.6571327039,125333.94251274377,TASK1
2026-05-26T09:35:23.497+00:00,939,65594,74487.56837696652,65349.01295292532,180702.05220008516,119892.3432698659,112970.03036380176,93801.01785671923,143499.13817633846,125334.88128601089,TASK1
2026-05-26T09:35:23.497+00:00,939,65595,74487.56837696652,65351.42694132649,180696.75483664926,119908.43652587372,112963.92833756546,93808.79626378969,143500.2110600723,125335.95416974474,TASK1
2026-05-26T09:35:23.497+00:00,939,65596,74486.29432753257,65345.861356957124,180698.63238318352,119892.1421041658,112967.4152097005,93809.3327056566,143501.82038567308,125337.29527441207,TASK1
2026-05-26T09:35:23.497+00:00,939,65597,74483.94739436476,65348.81178722522,180697.0901128161,119885.77185699604,112971.70674463591,93799.74380728528,143499.47345250528,125337.83171627899,TASK1
2026-05-26T09:35:23.497+00:00,939,65598,74484.75205716515,65351.22577562639,180693.67029591443,119886.04007792952,112973.04784930323,93805.64466782149,143498.73584493826,125330.38858537537,TASK1
2026-05-26T09:35:23.497+00:00,939,65599,74488.77537116711,65347.00129592434,180694.7431796483,119893.55026406649,112971.77379986928,93807.25399342227,143501.1498333394,125331.99791097616,TASK1
2026-05-26T09:35:23.497+00:00,939,65600,74492.53046423559,65342.508595288826,180698.23005178332,119899.4511246027,112973.38312547006,93801.15196718597,143503.29560080712,125338.16699244583,TASK1
2026-05-26T09:35:23.497+00:00,939,65601,74492.06107760203,65339.356999320626,180700.91226111795,119897.37241236835,112974.99245107084,93806.51638585524,143503.5638217406,125340.04453898007,TASK1
2026-05-26T09:35:23.497+00:00,939,65602,74488.37303976691,65344.184976122975,180698.56532795014,119896.90302573479,112970.23152950186,93810.27147892374,143504.368484541,125342.45852738124,TASK1
2026-05-26T09:35:23.497+00:00,939,65603,74490.78702816808,65349.01295292532,180693.5361854477,119891.06922043195,112964.93416606596,93810.07031322364,143503.63087697397,125344.87251578241,TASK1
2026-05-26T09:35:23.497+00:00,939,65604,74491.05524910154,65353.03626692727,180690.11636854603,119895.0925344339,112966.00704979981,93818.92160402794,143505.77664444168,125344.13490821539,TASK1
2026-05-26T09:35:23.497+00:00,939,65605,74489.51297873413,65348.54356629176,180691.1892522799,119906.08959270592,112967.88459633406,93823.21313896336,143510.33640031054,125342.86085878144,TASK1
2026-05-26T09:35:23.497+00:00,939,65606,74487.97070836672,65334.93135391847,180693.06679881414,119905.3519851389,112965.53766316625,93810.137368457,143509.867013677,125341.85503028095,TASK1
2026-05-26T09:35:23.497+00:00,939,65607,74486.96487986622,65335.73601671887,180693.60324068106,119899.51817983606,112966.34232596665,93810.67381032393,143510.4034555439,125342.9279140148,TASK1
2026-05-26T09:35:23.497+00:00,939,65608,74483.00862109763,65342.977981922384,180689.37876097902,119896.36658386786,112964.80005559922,93812.2831359247,143509.12940610998,125343.19613494826,TASK1
2026-05-26T09:35:23.497+00:00,939,65609,74481.19812979676,65341.167490621505,180688.90937434544,119896.36658386786,112963.2577852318,93809.39976088998,143509.12940610998,125342.19030644778,TASK1
2026-05-26T09:35:23.497+00:00,939,65610,74485.48966473217,65330.50570851633,180687.90354584495,119900.65811880329,112964.8671108326,93810.20442369037,143510.73873171074,125343.5314111151,TASK1
2026-05-26T09:35:23.497+00:00,939,65611,74482.8745106309,65336.406569052524,180683.9472870764,119901.9992234706,112959.56974739669,93807.5892695891,143507.58713574253,125341.45269888075,TASK1
2026-05-26T09:35:23.497+00:00,939,65612,74480.5275774631,65346.59896452415,180679.72280737432,119899.92051123625,112957.7592560958,93805.77877828822,143502.28977230663,125329.71803304172,TASK1
2026-05-26T09:35:23.497+00:00,939,65613,74482.94156586427,65351.96338319342,180674.69366487188,119904.21204617167,112957.5580903957,93815.97117375984,143504.97198164128,125328.44398360777,TASK1
2026-05-26T09:35:23.497+00:00,939,65614,74488.84242640047,65349.34822909215,180672.34673170408,119917.08665097793,112960.5085206638,93805.04117072119,143506.3130863086,125330.85797200893,TASK1
2026-05-26T09:35:23.497+00:00,939,65615,74487.83659789998,65339.222888853896,180671.60912413703,119908.03419447353,112964.2636137323,93802.69423755338,143506.84952817552,125333.00373947664,TASK1
2026-05-26T09:35:23.497+00:00,939,65616,74485.75788566563,65334.73018821838,180671.8773450705,119895.22664490064,112965.0682765327,93811.00908649075,143508.4588537763,125333.54018134357,TASK1
2026-05-26T09:35:23.497+00:00,939,65617,74485.02027809861,65336.33951381916,180674.8277753386,119907.56480783997,112966.4093812,93815.30062142618,143511.4092840444,125329.04748070806,TASK1
2026-05-26T09:35:23.497+00:00,939,65618,74482.67334493081,65331.310371316715,180672.21262123733,119913.19744744271,112966.94582306693,93813.4901301253,143511.67750497788,125332.53435284308,TASK1
2026-05-26T09:35:23.497+00:00,939,65619,74488.84242640047,65333.99258065136,180671.4750136703,119914.80677304349,112967.48226493386,93814.29479292569,143509.0623508766,125328.57809407449,TASK1
2026-05-26T09:35:23.497+00:00,939,65620,74492.3292985355,65344.7214179899,180674.96188580533,119918.29364517852,112969.62803240157,93816.17233945994,143508.59296424303,125329.91919874182,TASK1
2026-05-26T09:35:23.497+00:00,939,65621,74494.20684506974,65349.549394792244,180677.91231607343,119920.97585451315,112972.04202080275,93818.85454879457,143511.54339451113,125335.55183834455,TASK1
2026-05-26T09:35:23.497+00:00,939,65622,74494.74328693667,65351.42694132649,180677.71115037333,119926.87671504935,112974.99245107084,93827.70583959887,143517.1760341139,125341.98914074768,TASK1
2026-05-26T09:35:23.497+00:00,939,65623,74491.85991190193,65349.61645002561,180675.90065907247,119929.29070345053,112977.67466040548,93830.38804893351,143520.6629062489,125351.91331528584,TASK1
2026-05-26T09:35:23.497+00:00,939,65624,74495.34678403697,65345.1237493901,180673.2855049712,119928.5530958835,112975.05950630421,93832.26559546776,143518.58419401455,125354.05908275355,TASK1
2026-05-26T09:35:23.497+00:00,939,65625,74501.31469980653,65344.92258369,180674.6266096385,119929.08953775043,112979.75337263983,93837.69706937039,143523.27806035016,125356.47307115472,TASK1
2026-05-26T09:35:23.497+00:00,939,65626,74499.77242943911,65348.14123489156,180677.84526084008,119932.84463081892,112982.70380290793,93844.93903457391,143526.7649324852,125357.00951302165,TASK1
2026-05-26T09:35:23.497+00:00,939,65627,74501.91819690683,65351.62810702659,180675.76654860572,119939.28193322205,112974.45600920392,93851.10811604359,143525.49088305124,125357.54595488857,TASK1
2026-05-26T09:35:23.497+00:00,939,65628,74503.25930157414,65351.62810702659,180669.1280805025,119940.89125882283,112974.72423013738,93845.81075260768,143520.19351961534,125355.19902172076,TASK1
2026-05-26T09:35:23.497+00:00,939,65629,74501.1805893398,65346.33074359068,180666.51292640122,119936.39855818731,112978.47932320587,93838.63584263752,143522.0710661496,125358.14945198887,TASK1
2026-05-26T09:35:23.497+00:00,939,65630,74501.44881027326,65347.13540639108,180667.5858101351,119941.49475592312,112982.77085814129,93838.90406357098,143526.362601085,125360.56344039003,TASK1
2026-05-26T09:35:23.497+00:00,939,65631,74502.25347307365,65352.76804599381,180666.84820256807,119938.07493902146,112980.42392497348,93846.9506915749,143521.33345858255,125356.60718162145,TASK1
2026-05-26T09:35:23.497+00:00,939,65632,74499.10187710545,65356.25491812884,180667.384644435,119933.31401745249,112979.14987553953,93844.33553747363,143523.47922605026,125358.4847281557,TASK1
2026-05-26T09:35:23.497+00:00,939,65633,74496.75494393765,65355.517310561816,180667.384644435,119932.57640988546,112983.17318954149,93852.91860734446,143528.84364471954,125364.92203055882,TASK1
2026-05-26T09:35:23.497+00:00,939,65634,74498.09604860497,65355.517310561816,180663.4283856664,119935.52684015356,112982.16736104099,93853.72327014485,143527.30137435213,125364.72086485873,TASK1
2026-05-26T09:35:23.497+00:00,939,65635,74496.28555730409,65357.39485709606,180664.2330484668,119935.32567445346,112979.28398600627,93841.98860430582,143523.34511558354,125361.30104795707,TASK1
2026-05-26T09:35:23.497+00:00,939,65636,74493.40218226935,65354.77970299479,180662.95899903285,119929.49186915063,112979.28398600627,93850.57167417665,143522.0710661496,125360.83166132351,TASK1
2026-05-26T09:35:23.497+00:00,939,65637,74498.49838000516,65356.9254704625,180662.48961239928,119931.36941568487,112979.28398600627,93862.10517431558,143521.60167951602,125362.44098692428,TASK1
2026-05-26T09:35:23.497+00:00,939,65638,74500.64414747288,65360.948784464454,180662.48961239928,119939.41604368878,112980.08864880666,93867.20137205141,143520.3276300821,125364.05031252507,TASK1
2026-05-26T09:35:23.497+00:00,939,65639,74501.44881027326,65360.21117689743,180657.7286908303,119943.7075786242,112981.42975347397,93864.31799701667,143524.08272315055,125369.95117306127,TASK1
2026-05-26T09:35:23.497+00:00,939,65640,74501.24764457316,65357.327801862695,180655.3817576625,119948.80377636002,112984.38018374208,93875.31505528868,143532.39757208794,125375.31559173054,TASK1
2026-05-26T09:35:23.497+00:00,939,65641,74501.51586550663,65363.49688333236,180655.64997859596,119941.62886638986,112985.45306747593,93862.23928478232,143530.3188598536,125371.09111202849,TASK1
2026-05-26T09:35:23.497+00:00,939,65642,74504.19807484126,65367.251976400854,180655.44881289586,119940.62303788937,112987.8670558771,93872.16345932048,143529.31303135311,125375.11442603044,TASK1
2026-05-26T09:35:23.497+00:00,939,65643,74507.95316790976,65364.36860136611,180654.9794262623,119962.34893349993,112991.35392801213,93885.57450599366,143535.21389188932,125382.35639123396,TASK1
2026-05-26T09:35:23.497+00:00,939,65644,74507.75200220966,65367.319031634215,180656.58875186308,119945.24984899162,112991.89036987905,93874.37628202155,143531.52585405417,125376.25436499766,TASK1
2026-05-26T09:35:23.497+00:00,939,65645,74501.11353410644,65368.12369443461,180655.85114429606,119930.56475288449,112990.07987857818,93869.61536045258,143525.96026968482,125375.24853649718,TASK1
2026-05-26T09:35:23.497+00:00,939,65646,74501.24764457316,65362.6251652986,180656.05230999616,119935.05745352,112990.68337567846,93873.16928782097,143526.22849061826,125377.66252489835,TASK1
2026-05-26T09:35:23.497+00:00,939,65647,74503.39341204088,65362.15577866504,180651.55960936064,119930.56475288449,112991.2198175454,93870.55413371969,143522.54045278314,125376.12025453094,TASK1
2026-05-26T09:35:23.497+00:00,939,65648,74499.9735951392,65360.881729231085,180643.84825752355,119928.21781971668,112991.48803847886,93868.20720055189,143517.24308934723,125370.55467016155,TASK1
2026-05-26T09:35:23.497+00:00,939,65649,74499.9735951392,65359.60767979713,180640.16021968843,119929.558924384,112989.40932624451,93871.96229362038,143513.0186096452,125370.085283528,TASK1
2026-05-26T09:35:23.497+00:00,939,65650,74500.24181607268,65354.310316361225,180640.96488248883,119937.33733145444,112982.23441627437,93872.23051455384,143511.74456021123,125371.15816726185,TASK1
2026-05-26T09:35:23.497+00:00,939,65651,74496.82199917102,65358.60185129665,180640.76371678873,119938.14199425482,112987.8670558771,93874.10806108809,143511.74456021123,125370.95700156175,TASK1
2026-05-26T09:35:23.841+00:00,940,65652,74500.84531317298,65360.479397830895,180642.64126332296,119944.84751759142,112992.42681174599,93889.12843336206,143518.45008354782,125376.5896411645,TASK1
2026-05-26T09:35:23.841+00:00,940,65653,74503.5275225076,65366.11203743363,180642.64126332296,119944.64635189132,112995.10902108061,93879.27131405726,143522.74161848324,125375.04737079708,TASK1
2026-05-26T09:35:23.841+00:00,940,65654,74501.44881027326,65369.59890956866,180638.14856268745,119944.44518619122,112993.83497164666,93881.68530245844,143522.54045278314,125371.89577482888,TASK1
2026-05-26T09:35:23.841+00:00,940,65655,74498.29721430507,65369.59890956866,180638.14856268745,119947.12739552587,112991.48803847886,93883.02640712576,143520.99818241573,125370.88994632839,TASK1
2026-05-26T09:35:23.841+00:00,940,65656,74502.85697017395,65369.129522935094,180637.67917605388,119945.04868329152,112987.2635587768,93886.78150019425,143519.18769111484,125366.9336875598,TASK1
2026-05-26T09:35:23.841+00:00,940,65657,74500.51003700614,65368.39191536807,180635.06402195262,119943.23819199063,112985.45306747593,93888.92726766196,143518.45008354782,125367.47012942673,TASK1
2026-05-26T09:35:23.841+00:00,940,65658,74498.69954570525,65359.60767979713,180631.91242598442,119948.33438972644,112985.72128840939,93871.02352035326,143519.5229672817,125366.19607999278,TASK1
2026-05-26T09:35:23.841+00:00,940,65659,74499.23598757219,65360.68056353099,180626.34684161504,119956.38101773035,112983.37435524158,93873.97395062135,143515.03026664618,125361.16693749033,TASK1
2026-05-26T09:35:23.841+00:00,940,65660,74497.15727533784,65355.11497916162,180623.99990844724,119932.57640988546,112982.36852674109,93880.14303209103,143515.29848757962,125364.38558869189,TASK1
2026-05-26T09:35:23.841+00:00,940,65661,74501.44881027326,65356.18786289547,180624.53635031416,119936.33150295395,112979.21693077289,93886.04389262722,143512.14689161142,125362.84331832448,TASK1
2026-05-26T09:35:23.841+00:00,940,65662,74501.98525214019,65367.72136303441,180626.41389684842,119942.23236349015,112981.63091917407,93883.42873852595,143516.1702056134,125366.86663232643,TASK1
2026-05-26T09:35:23.841+00:00,940,65663,74503.05813587405,65370.671793302514,180629.09610618305,119947.06034029249,112985.38601224257,93879.47247975736,143523.94861268383,125373.30393472956,TASK1
2026-05-26T09:35:23.841+00:00,940,65664,74504.39924054136,65369.66596480202,180629.63254804997,119947.06034029249,112987.80000064374,93887.78732869474,143521.8699004495,125369.8841178279,TASK1
2026-05-26T09:35:23.841+00:00,940,65665,74505.20390334175,65370.470627602415,180628.35849861603,119952.42475896177,112984.916625609,93896.10217763211,143519.79118821514,125369.14651026088,TASK1
2026-05-26T09:35:23.841+00:00,940,65666,74501.7840864401,65368.928357234996,180627.08444918206,119952.22359326167,112981.7650296408,93889.19548859542,143512.88449917844,125354.7296350872,TASK1
2026-05-26T09:35:23.841+00:00,940,65667,74496.21850207073,65350.21994712591,180623.9328532139,119951.21776476118,112979.41809647299,93893.75524446431,143511.6104497445,125349.70049258476,TASK1
2026-05-26T09:35:23.841+00:00,940,65668,74497.55960673804,65349.48233955888,180620.51303631222,119949.67549439377,112979.95453833992,93885.23922982684,143508.4588537763,125348.15822221735,TASK1
2026-05-26T09:35:23.841+00:00,940,65669,74506.14267660888,65367.184921167485,180622.9270247134,119942.76880535707,112982.90496860803,93879.94186639093,143508.2576880762,125348.15822221735,TASK1
2026-05-26T09:35:23.841+00:00,940,65670,74503.5275225076,65373.890444504075,180625.34101311455,119943.03702629053,112985.05073607573,93884.23340132635,143512.0127811447,125350.30398968505,TASK1
2026-05-26T09:35:23.841+00:00,940,65671,74500.30887130604,65376.84087477218,180625.20690264783,119948.33438972644,112983.70963140842,93892.61530549708,143517.84658644753,125352.3827019194,TASK1
2026-05-26T09:35:23.841+00:00,940,65672,74499.03482187209,65375.29860440476,180619.64131827845,119949.13905252684,112984.5142942088,93893.9564101644,143515.49965327972,125350.0357687516,TASK1
2026-05-26T09:35:23.841+00:00,940,65673,74503.86279867444,65374.56099683773,180615.68505950988,119945.71923562518,112986.12361980959,93896.63861949903,143513.68916197884,125349.56638211802,TASK1
2026-05-26T09:35:23.841+00:00,940,65674,74504.9356824083,65370.604738069145,180618.63548977798,119951.35187522792,112987.4647244769,93902.27125910178,143515.03026664618,125345.61012334944,TASK1
2026-05-26T09:35:23.841+00:00,940,65675,74497.2243305712,65366.91670023402,180619.9765944453,119958.0573985645,112986.45889597642,93903.34414283563,143517.44425504733,125347.21944895021,TASK1
2026-05-26T09:35:23.841+00:00,940,65676,74496.21850207073,65364.30154613275,180618.9707659448,119954.63758166284,112985.45306747593,93899.11966313358,143517.44425504733,125353.12030948642,TASK1
2026-05-26T09:35:23.841+00:00,940,65677,74502.38758354039,65358.19951989645,180615.28272810968,119951.48598569464,112986.52595120978,93901.26543060128,143513.48799627874,125353.92497228681,TASK1
2026-05-26T09:35:23.841+00:00,940,65678,74501.64997597336,65359.80884549723,180610.25358560722,119950.21193626069,112988.67171867749,93897.04095089923,143513.7562172122,125356.60718162145,TASK1
2026-05-26T09:35:23.841+00:00,940,65679,74502.45463877375,65368.928357234996,180606.29732683863,119950.74837812762,112987.12944831008,93899.72316023387,143511.4092840444,125358.21650722223,TASK1
2026-05-26T09:35:23.841+00:00,940,65680,74506.20973184225,65372.95167123695,180607.90665243941,119958.52678519808,112986.66006167652,93904.81935796968,143509.33057181007,125357.47889965521,TASK1
2026-05-26T09:35:23.841+00:00,940,65681,74505.20390334175,65370.604738069145,180613.80751297562,119963.08654106695,112990.415154745,93908.03800917124,143512.28100207818,125364.45264392527,TASK1
2026-05-26T09:35:23.841+00:00,940,65682,74508.15433360985,65361.01583969782,180617.29438511064,119967.9145178693,112993.3655850131,93908.03800917124,143510.73873171074,125363.44681542477,TASK1
2026-05-26T09:35:23.841+00:00,940,65683,74507.6849469763,65366.91670023402,180613.874568209,119966.37224750189,112993.63380594656,93906.49573880383,143510.53756601064,125362.44098692428,TASK1
2026-05-26T09:35:23.841+00:00,940,65684,74506.6791184758,65374.69510730447,180611.5276350412,119977.63752670736,112990.75043091184,93909.17794813847,143511.34222881103,125360.09405375647,TASK1
2026-05-26T09:35:23.841+00:00,940,65685,74510.4342115443,65374.69510730447,180611.3264693411,119969.38973300335,112992.09153557915,93909.98261093885,143511.14106311093,125364.65380962536,TASK1
2026-05-26T09:35:23.841+00:00,940,65686,74512.31175807855,65374.69510730447,180613.20401587532,119952.82709036197,112992.62797744609,93908.17211963798,143509.867013677,125361.2339927237,TASK1
2026-05-26T09:35:23.841+00:00,940,65687,74512.579979012,65363.49688333236,180610.58886177407,119960.6054974324,112993.70086117994,93911.92721270648,143511.2081183443,125363.91620205833,TASK1
2026-05-26T09:35:23.841+00:00,940,65688,74510.50126677766,65359.80884549723,180606.09616113853,119965.43347423476,112991.6221489456,93901.53365153476,143507.5200805092,125361.56926889053,TASK1
2026-05-26T09:35:23.841+00:00,940,65689,74506.54500800907,65372.147008436565,180600.53057676918,119964.9640876012,112985.78834364275,93901.53365153476,143503.5638217406,125361.09988225697,TASK1
2026-05-26T09:35:23.841+00:00,940,65690,74504.46629577474,65371.40940086954,180596.84253893406,119970.06028533701,112984.78251514227,93906.89807020403,143500.4122257724,125360.63049562341,TASK1
2026-05-26T09:35:23.841+00:00,940,65691,74502.92402540731,65369.33068863519,180595.5684895001,119970.32850627047,112983.77668664178,93906.42868357047,143496.4559670038,125356.13779498788,TASK1
2026-05-26T09:35:23.841+00:00,940,65692,74502.45463877375,65365.10620893314,180595.5684895001,119974.08359933896,112983.30730000822,93915.0117534413,143496.99240887072,125351.64509435237,TASK1
2026-05-26T09:35:23.841+00:00,940,65693,74503.5275225076,65371.00706946934,180594.02621913268,119977.83869240746,112983.57552094168,93934.3236606507,143499.67461820538,125352.71797808622,TASK1
2026-05-26T09:35:23.841+00:00,940,65694,74503.79574344106,65375.0303834713,180593.28861156566,119977.36930577389,112982.56969244119,93917.7610180093,143499.2052315718,125354.05908275355,TASK1
2026-05-26T09:35:23.841+00:00,940,65695,74508.89194117687,65372.415229370024,180591.47812026477,119974.75415167262,112982.83791337465,93914.87764297456,143497.6629612044,125353.32147518652,TASK1
2026-05-26T09:35:23.841+00:00,940,65696,74507.8861126764,65371.14117993607,180590.2040708308,119970.52967197057,112981.02742207378,93908.5073958048,143496.6571327039,125355.46724265422,TASK1
2026-05-26T09:35:23.841+00:00,940,65697,74505.80740044205,65362.89338623206,180587.58891672955,119968.18273880276,112979.21693077289,93908.5073958048,143497.4617955043,125357.8812310554,TASK1
2026-05-26T09:35:23.841+00:00,940,65698,74506.94733940926,65371.14117993607,180588.19241382985,119974.35182027242,112980.96036684042,93918.09629417614,143494.77958616966,125357.14362348837,TASK1
2026-05-26T09:35:23.841+00:00,940,65699,74506.20973184225,65375.432714871495,180587.99124812975,119974.6200412059,112983.10613430812,93923.46071284541,143492.96909486878,125359.02117002262,TASK1
2026-05-26T09:35:23.841+00:00,940,65700,74507.2826155761,65376.23737767188,180589.0641318636,119974.6200412059,112986.05656457623,93923.99715471234,143498.6017344715,125365.19025149228,TASK1
2026-05-26T09:35:23.841+00:00,940,65701,74503.86279867444,65378.11492420613,180593.89210866595,119975.69292493975,112987.39766924354,93924.80181751272,143502.08860660653,125367.87246082693,TASK1
2026-05-26T09:35:23.841+00:00,940,65702,74512.44586854527,65377.64553757257,180594.9649923998,119978.64335520785,112988.20233204393,93928.0204687143,143503.69793220732,125364.98908579219,TASK1
2026-05-26T09:35:23.841+00:00,940,65703,74515.12807787991,65377.64553757257,180588.59474523005,119977.90574764082,112983.97785234188,93932.04378271624,143499.47345250528,125355.40018742086,TASK1
2026-05-26T09:35:23.841+00:00,940,65704,74508.48960977669,65377.91375850603,180582.49271899374,119990.24391058015,112980.55803544022,93939.01752698631,143499.47345250528,125352.51681238612,TASK1
2026-05-26T09:35:23.841+00:00,940,65705,74505.06979287502,65374.225720670904,180582.29155329365,119996.41299204981,112982.97202384139,93922.45488434492,143500.27811530567,125354.9308007873,TASK1
2026-05-26T09:35:23.841+00:00,940,65706,74509.09310687697,65374.76216253783,180583.90087889443,119978.77746567458,112982.97202384139,93936.6705938185,143494.44431000281,125353.38853041988,TASK1
2026-05-26T09:35:23.841+00:00,940,65707,74513.3846418124,65374.56099683773,180588.72885569677,119988.70164021273,112984.84957037563,93931.37323038258,143496.0536356036,125353.1873647198,TASK1
2026-05-26T09:35:23.841+00:00,940,65708,74511.57415051151,65371.14117993607,180587.99124812975,119980.99028837566,112979.55220693973,93929.56273908171,143491.02449310117,125348.96288501774,TASK1
2026-05-26T09:35:23.841+00:00,940,65709,74508.69077547679,65370.40357236905,180585.107873095,119982.33139304297,112976.13239003807,93925.33825937966,143487.6046761995,125350.0357687516,TASK1
2026-05-26T09:35:23.841+00:00,940,65710,74507.14850510936,65373.35400263715,180586.18075682886,119985.28182331107,112975.93122433797,93928.82513151468,143487.13528956595,125353.25441995315,TASK1
2026-05-26T09:35:23.841+00:00,940,65711,74504.80157194156,65378.45020037296,180586.98541962926,119983.47133201019,112975.73005863787,93928.08752394766,143489.28105703366,125351.9803705192,TASK1
2026-05-26T09:35:23.841+00:00,940,65712,74504.332185308,65374.225720670904,180584.37026552798,119986.95820414522,112974.45600920392,93935.59771008465,143490.62216170097,125353.32147518652,TASK1
2026-05-26T09:35:23.841+00:00,940,65713,74502.52169400711,65371.8787875031,180580.95044862633,119992.05440188103,112973.45018070342,93934.86010251763,143494.109033836,125361.63632412389,TASK1
2026-05-26T09:35:23.841+00:00,940,65714,74499.10187710545,65376.97498523891,180577.79885265813,119991.58501524747,112977.47349470538,93934.1224949506,143497.0594641041,125370.21939399473,TASK1
2026-05-26T09:35:23.841+00:00,940,65715,74502.85697017395,65384.21695044243,180578.33529452505,119992.92611991479,112981.7650296408,93943.51022762184,143498.93701063836,125376.12025453094,TASK1
2026-05-26T09:35:23.841+00:00,940,65716,74510.6353772444,65385.02161324282,180580.74928292623,119998.0223176506,112989.00699484433,93947.5335416238,143502.9603246403,125380.41178946635,TASK1
2026-05-26T09:35:23.841+00:00,940,65717,74509.36132781045,65386.36271791014,180578.13412882495,120001.50918978562,112990.07987857818,93950.21575095842,143503.22854557377,125376.45553069776,TASK1
2026-05-26T09:35:23.841+00:00,940,65718,74508.35549930995,65384.01578474233,180575.25075379023,119997.55293101704,112985.31895700919,93943.04084098827,143506.44719677532,125373.30393472956,TASK1
2026-05-26T09:35:23.841+00:00,940,65719,74513.1834761123,65378.986642239885,180577.39652125794,120002.38090781939,112985.1177913091,93952.16035272603,143514.7620457127,125380.27767899961,TASK1
2026-05-26T09:35:23.841+00:00,940,65720,74510.8365429445,65377.44437187247,180579.00584685872,120000.30219558504,112988.87288437759,93945.52188462281,143507.05069387562,125374.17565276333,TASK1
2026-05-26T09:35:23.841+00:00,940,65721,74509.56249351054,65381.73590680789,180579.8105096591,119995.00483214913,112984.38018374208,93943.44317238846,143493.7067024358,125362.70920785774,TASK1
2026-05-26T09:35:23.841+00:00,940,65722,74508.02022314312,65383.34523240867,180578.26823929168,119991.58501524747,112981.22858777388,93943.44317238846,143486.26357153218,125358.75294908916,TASK1
2026-05-26T09:35:23.841+00:00,940,65723,74505.40506904185,65380.193636440476,180575.65308519042,119996.94943391674,112980.75920114032,93943.9796142554,143488.4093389999,125361.16693749033,TASK1
2026-05-26T09:35:23.841+00:00,940,65724,74505.20390334175,65377.84670327266,180571.1603845549,120007.6782712553,112980.02159357328,93947.73470732388,143491.09154833455,125359.89288805638,TASK1
2026-05-26T09:35:23.841+00:00,940,65725,74510.56832201102,65375.231549171396,180570.15455605442,119985.75120994463,112980.28981450674,93956.04955626126,143490.62216170097,125362.30687645756,TASK1
2026-05-26T09:35:23.841+00:00,940,65726,74509.29427257707,65376.57265383871,180569.95339035432,119989.50630301313,112980.55803544022,93956.31777719472,143490.89038263445,125363.37976019141,TASK1
2026-05-26T09:35:23.841+00:00,940,65727,74502.11936260693,65370.470627602415,180567.87467811996,119991.1156286139,112979.01576507279,93951.28863469228,143487.2023447993,125363.37976019141,TASK1
2026-05-26T09:35:23.841+00:00,940,65728,74501.91819690683,65374.76216253783,180560.1633262829,119995.13894261586,112979.01576507279,93957.72593709541,143485.12363256497,125362.91037355784,TASK1
2026-05-26T09:35:23.841+00:00,940,65729,74506.74617370917,65377.64553757257,180557.8163931151,119986.22059657819,112980.15570404002,93961.54808539727,143486.53179246566,125366.06196952604,TASK1
2026-05-26T09:35:23.841+00:00,940,65730,74503.3263568075,65374.225720670904,180559.69393964933,119979.31390754151,112980.96036684042,93966.3760621996,143484.4530802313,125362.64215262438,TASK1
2026-05-26T09:35:23.841+00:00,940,65731,74501.51586550663,65372.68345030349,180561.83970711703,119978.30807904102,112981.49680870734,93961.0786987637,143480.76504239617,125355.46724265422,TASK1
2026-05-26T09:35:23.841+00:00,940,65732,74505.00273764165,65375.097438704666,180560.5656576831,119976.49758774013,112979.68631740646,93962.15158249756,143477.07700456106,125355.26607695413,TASK1
2026-05-26T09:35:23.841+00:00,940,65733,74501.04647887306,65378.31608990623,180556.87761984795,119967.7133521692,112976.53472143826,93960.8775330636,143480.02743482916,125355.26607695413,TASK1
2026-05-26T09:35:23.841+00:00,940,65734,74502.38758354039,65372.48228460339,180555.603570414,119965.09819806794,112977.33938423866,93966.24195173288,143483.51430696418,125356.87540255491,TASK1
2026-05-26T09:35:23.841+00:00,940,65735,74502.65580447385,65368.25780490134,180557.74933788172,119964.09236956744,112980.82625637368,93965.77256509932,143486.73295816575,125362.23982122418,TASK1
2026-05-26T09:35:23.841+00:00,940,65736,74501.3817550399,65373.35400263715,180558.5540006821,119959.33144799845,112982.97202384139,93965.77256509932,143486.73295816575,125363.58092589151,TASK1
2026-05-26T09:35:23.841+00:00,940,65737,74500.10770560594,65380.327746907205,180558.352834982,119957.78917763104,112976.0653348047,93975.96496057094,143485.19068779834,125362.84331832448,TASK1
2026-05-26T09:35:23.841+00:00,940,65738,74494.81034217004,65381.40063064106,180555.73768088073,119959.39850323183,112973.98662257036,93979.45183270596,143484.4530802313,125364.72086485873,TASK1
2026-05-26T09:35:23.841+00:00,940,65739,74497.49255150468,65375.29860440476,180554.19541051332,119957.58801193094,112974.79128537075,93980.79293737328,143482.64258893044,125361.83748982399,TASK1
2026-05-26T09:35:23.841+00:00,940,65740,74505.00273764165,65370.537682835784,180559.02338731565,119956.04574156353,112978.54637843923,93979.7871088728,143483.71547266428,125360.29521945657,TASK1
2026-05-26T09:35:23.841+00:00,940,65741,74505.53917950859,65364.70387753294,180563.85136411802,119956.31396249699,112979.88748310656,93976.90373383806,143488.27522853317,125362.17276599082,TASK1
2026-05-26T09:35:23.841+00:00,940,65742,74507.41672604284,65364.70387753294,180563.38197748445,119957.38684623085,112982.30147150773,93982.80459437426,143490.9574378678,125363.24564972467,TASK1
2026-05-26T09:35:23.841+00:00,940,65743,74511.17181911132,65370.06829620222,180561.03504431664,119954.50347119612,112979.95453833992,93987.90079211007,143490.9574378678,125366.46430092624,TASK1
2026-05-26T09:35:23.841+00:00,940,65744,74504.26513007464,65375.16449393803,180556.8105646146,119949.47432869367,112976.53472143826,93986.35852174266,143493.9078681359,125370.48761492819,TASK1
2026-05-26T09:35:23.841+00:00,940,65745,74502.99108064068,65380.797133540764,180554.4636314468,119945.78629085854,112976.80294237172,93988.2360682769,143492.9020396354,125368.67712362732,TASK1
2026-05-26T09:35:23.841+00:00,940,65746,74504.06396437454,65380.797133540764,180554.73185238024,119943.17113675727,112975.79711387123,93989.30895201076,143491.359769268,125368.47595792722,TASK1
2026-05-26T09:35:23.841+00:00,940,65747,74503.3263568075,65378.718421306425,180554.73185238024,119941.3606454564,112974.25484350382,93994.1369288131,143486.33062676556,125367.20190849327,TASK1
2026-05-26T09:35:23.841+00:00,940,65748,74499.37009803893,65371.811732269736,180551.8484773455,119944.57929665796,112972.98079406987,93999.2331265489,143485.86124013198,125370.42055969483,TASK1
2026-05-26T09:35:23.841+00:00,940,65749,74501.24764457316,65371.61056656964,180548.1604395104,119950.21193626069,112973.78545687026,93997.15441431457,143489.61633320048,125372.56632716254,TASK1
2026-05-26T09:35:23.841+00:00,940,65750,74502.32052830701,65376.70676430545,180550.3062069781,119950.61426766089,112977.40643947202,93995.94742011398,143492.03032160166,125376.12025453094,TASK1
2026-05-26T09:35:23.841+00:00,940,65751,74508.48960977669,65377.243206172374,180553.52485817965,119950.88248859436,112979.55220693973,93995.94742011398,143491.02449310117,125373.2368794962,TASK1
2026-05-26T09:35:24.128+00:00,941,65752,74513.5858075125,65380.7300783074,180553.79307911312,119952.49181419513,112978.54637843923,94002.3847225171,143487.6046761995,125373.0357137961,TASK1
2026-05-26T09:35:24.128+00:00,941,65753,74512.31175807855,65389.31314817824,180548.7639366107,119955.97868633017,112975.12656153757,94010.16312958756,143487.87289713297,125376.25436499766,TASK1
2026-05-26T09:35:24.128+00:00,941,65754,74506.74617370917,65389.31314817824,180544.27123597517,119953.09531129543,112974.92539583748,94008.35263828668,143487.67173143287,125382.6916674008,TASK1
2026-05-26T09:35:24.128+00:00,941,65755,74510.2330458442,65385.62511034311,180545.6123406425,119957.6550671643,112978.14404703904,94012.91239415556,143491.1586035679,125381.14939703337,TASK1
2026-05-26T09:35:24.128+00:00,941,65756,74513.71991797922,65385.423944643015,180547.48988717672,119960.87371836588,112982.70380290793,94014.7899406898,143491.1586035679,125370.48761492819,TASK1
2026-05-26T09:35:24.128+00:00,941,65757,74513.9881389127,65380.9312440075,180547.02050054318,119957.99034333114,112988.0682215772,94006.00570511886,143486.93412386585,125369.4817864277,TASK1
2026-05-26T09:35:24.128+00:00,941,65758,74518.01145291465,65375.63388057159,180544.13712550842,119954.30230549602,112983.57552094168,94003.92699288453,143482.17320229686,125366.86663232643,TASK1
2026-05-26T09:35:24.128+00:00,941,65759,74517.27384534762,65369.80007526876,180538.03509927212,119960.20316603221,112975.59594817113,94007.1456440861,143481.43559472985,125365.32436195902,TASK1
2026-05-26T09:35:24.128+00:00,941,65760,74513.85402844596,65358.60185129665,180535.9563870378,119974.68709643926,112978.54637843923,94005.3351527852,143484.11780406447,125365.12319625892,TASK1
2026-05-26T09:35:24.128+00:00,941,65761,74511.50709527815,65365.575595566705,180538.37037543897,119959.73377939865,112974.32189873718,94006.40803651906,143482.3073127636,125362.23982122418,TASK1
2026-05-26T09:35:24.128+00:00,941,65762,74515.26218834665,65377.377316639104,180540.78436384012,119968.58507020296,112973.04784930323,94013.65000172259,143482.3073127636,125361.2339927237,TASK1
2026-05-26T09:35:24.128+00:00,941,65763,74522.23593261669,65380.327746907205,180541.32080570707,119970.19439580374,112976.53472143826,94013.65000172259,143481.56970519657,125361.77043459062,TASK1
2026-05-26T09:35:24.128+00:00,941,65764,74525.99102568519,65383.27817717531,180543.46657317478,119966.77457890207,112982.97202384139,94009.693742954,143482.64258893044,125361.30104795707,TASK1
2026-05-26T09:35:24.128+00:00,941,65765,74523.37587158392,65383.07701147521,180544.53945690862,119972.94366037175,112983.50846570832,94014.25349882287,143480.83209762955,125357.61301012193,TASK1
2026-05-26T09:35:24.128+00:00,941,65766,74521.29715934957,65384.68633707599,180542.72896560773,119972.47427373817,112984.3131285087,94010.02901912082,143480.63093192945,125357.8812310554,TASK1
2026-05-26T09:35:24.128+00:00,941,65767,74520.29133084908,65382.071182974716,180542.2595789742,119977.57047147398,112983.84374187514,94022.63540299362,143486.53179246566,125362.97742879122,TASK1
2026-05-26T09:35:24.128+00:00,941,65768,74520.82777271602,65382.071182974716,180539.107983006,119976.83286390697,112984.916625609,94017.06981862425,143493.77375766917,125365.92785905932,TASK1
2026-05-26T09:35:24.128+00:00,941,65769,74523.24176111718,65381.06535447423,180534.07884050356,119974.48593073916,112986.52595120978,94015.7957691903,143503.1614903404,125371.02405679513,TASK1
2026-05-26T09:35:24.128+00:00,941,65770,74526.46041231875,65380.05952597374,180533.07301200306,119978.24102380766,112987.59883494364,94025.18350186152,143509.867013677,125374.24270799669,TASK1
2026-05-26T09:35:24.128+00:00,941,65771,74527.80151698607,65378.24903467286,180536.2916632046,119982.80077967653,112990.54926521174,94025.71994372844,143516.03609514664,125379.3389057325,TASK1
2026-05-26T09:35:24.128+00:00,941,65772,74524.38170008441,65379.05369747325,180538.7056516058,119984.14188434384,112990.8174861452,94026.25638559538,143522.20517661632,125383.63044066791,TASK1
2026-05-26T09:35:24.128+00:00,941,65773,74521.49832504967,65387.368546410624,180539.5103144062,119988.1651983458,112991.08570707866,94031.08436239773,143522.74161848324,125391.1406268049,TASK1
2026-05-26T09:35:24.128+00:00,941,65774,74528.20384838627,65386.6309388436,180536.358718438,119988.70164021273,112983.64257617504,94028.20098736299,143515.29848757962,125385.57504243552,TASK1
2026-05-26T09:35:24.128+00:00,941,65775,74531.55661005455,65387.033270243795,180534.21295097028,120005.33133808748,112986.32478550969,94031.88902519812,143509.33057181007,125372.56632716254,TASK1
2026-05-26T09:35:24.128+00:00,941,65776,74529.47789782022,65386.8321045437,180534.21295097028,120012.573303291,112986.8612273766,94040.20387413549,143507.2518595757,125366.7325218597,TASK1
2026-05-26T09:35:24.128+00:00,941,65777,74530.2825606206,65380.7300783074,180532.9389015363,119989.84157917995,112982.10030580763,94038.66160376808,143512.34805731152,125375.04737079708,TASK1
2026-05-26T09:35:24.128+00:00,941,65778,74532.69654902178,65379.45602887345,180533.7435643367,119994.13311411538,112984.24607327534,94029.87736819714,143509.19646134332,125367.87246082693,TASK1
2026-05-26T09:35:24.128+00:00,941,65779,74533.50121182218,65387.234435943894,180538.03509927212,119997.6199862504,112985.31895700919,94035.51000779988,143501.48510950626,125355.3331321875,TASK1
2026-05-26T09:35:24.128+00:00,941,65780,74531.15427865437,65395.81750581473,180542.0584132741,120002.44796305275,112984.84957037563,94039.8015427353,143499.4063972719,125355.86957405442,TASK1
2026-05-26T09:35:24.128+00:00,941,65781,74532.49538332169,65392.129467979605,180542.0584132741,120001.44213455226,112988.33644251066,94038.25927236788,143504.5025950077,125360.96577179023,TASK1
2026-05-26T09:35:24.128+00:00,941,65782,74531.4895548212,65388.97787201141,180542.0584132741,120003.05146015304,112992.09153557915,94050.06099344027,143508.2576880762,125364.72086485873,TASK1
2026-05-26T09:35:24.128+00:00,941,65783,74531.2883891211,65387.43560164399,180538.63859637242,120009.48876255617,112992.89619837955,94052.74320277492,143504.3014293076,125364.98908579219,TASK1
2026-05-26T09:35:24.128+00:00,941,65784,74539.335017125,65388.24026444439,180534.41411667038,120007.94649218876,112995.04196584725,94048.78694400632,143503.29560080712,125362.37393169092,TASK1
2026-05-26T09:35:24.128+00:00,941,65785,74540.67612179232,65397.091555248684,180538.97387253927,120013.84735272496,112998.52883798229,94049.0551649398,143507.3189148091,125364.25147822517,TASK1
2026-05-26T09:35:24.128+00:00,941,65786,74536.9880839572,65396.0857267482,180541.11964000697,120011.23219862368,112996.98656761486,94044.02602243735,143506.84952817552,125363.78209159161,TASK1
2026-05-26T09:35:24.128+00:00,941,65787,74533.0318251886,65392.39768891307,180537.6998231053,120007.2759398551,112992.49386697935,94051.8044295078,143504.77081594118,125365.12319625892,TASK1
2026-05-26T09:35:24.128+00:00,941,65788,74530.6848920208,65392.19652321297,180533.47534340326,120007.81238172202,112990.95159661194,94055.29130164282,143501.3509990395,125360.89871655687,TASK1
2026-05-26T09:35:24.128+00:00,941,65789,74533.6353222889,65394.61051161415,180529.7873055681,120005.73366948767,112989.14110531105,94045.43418233802,143499.8087286721,125360.69755085677,TASK1
2026-05-26T09:35:24.128+00:00,941,65790,74537.12219442394,65396.756279081856,180527.97681426725,120005.26428285411,112989.14110531105,94056.16301967658,143502.7591589402,125364.72086485873,TASK1
2026-05-26T09:35:24.128+00:00,941,65791,74533.97059845574,65396.55511338176,180528.51325613417,120011.16514339032,112988.13527681056,94064.47786861395,143500.4122257724,125368.74417886068,TASK1
2026-05-26T09:35:24.128+00:00,941,65792,74536.92102872384,65392.86707554663,180530.65902360188,120007.74532648866,112988.13527681056,94049.79277250681,143501.7533304397,125373.0357137961,TASK1
2026-05-26T09:35:24.128+00:00,941,65793,74538.79857525809,65389.9837005119,180527.2392067002,120009.6228730229,112988.40349774403,94057.57117957727,143502.28977230663,125372.834548096,TASK1
2026-05-26T09:35:24.128+00:00,941,65794,74540.67612179232,65390.78836331229,180523.5511688651,120010.96397769022,112992.42681174599,94059.98516797843,143500.47928100577,125374.9803155637,TASK1
2026-05-26T09:35:24.128+00:00,941,65795,74542.28544739311,65389.7825348118,180523.5511688651,120002.98440491967,112994.5725792137,94048.51872307286,143497.0594641041,125372.36516146244,TASK1
2026-05-26T09:35:24.128+00:00,941,65796,74537.52452582413,65398.09738374918,180524.62405259896,120001.97857641919,112988.73877391085,94051.46915334096,143493.63964720245,125372.90160332937,TASK1
2026-05-26T09:35:24.128+00:00,941,65797,74538.86563049145,65403.193581484986,180524.42288689886,120006.53833228807,112987.19650354344,94058.44289761102,143489.41516750038,125369.4817864277,TASK1
2026-05-26T09:35:24.128+00:00,941,65798,74542.35250262647,65394.14112498058,180525.4957706327,120005.26428285411,112991.75625941233,94056.09596444322,143487.06823433258,125362.84331832448,TASK1
2026-05-26T09:35:24.128+00:00,941,65799,74538.39624385789,65392.86707554663,180524.22172119876,120007.6782712553,112992.56092221271,94059.31461564478,143488.9457808668,125364.98908579219,TASK1
2026-05-26T09:35:24.128+00:00,941,65800,74533.6353222889,65398.499715149366,180524.22172119876,120002.38090781939,112990.48220997838,94056.16301967658,143487.93995236635,125365.25730672566,TASK1
2026-05-26T09:35:24.128+00:00,941,65801,74526.46041231875,65397.76210758234,180527.4403724003,119999.49753278465,112990.75043091184,94054.62074930916,143491.42682450137,125369.81706259453,TASK1
2026-05-26T09:35:24.128+00:00,941,65802,74534.50704032266,65404.9370175525,180526.9039305334,120012.50624805763,112993.03030884628,94062.6003220797,143497.7970716711,125376.92491733133,TASK1
2026-05-26T09:35:24.128+00:00,941,65803,74537.45747059076,65407.8874478206,180519.1925786963,120024.5761900635,112990.68337567846,94064.47786861395,143499.13817633846,125380.68001039981,TASK1
2026-05-26T09:35:24.128+00:00,941,65804,74540.1396799254,65402.85830531816,180517.91852926236,120003.99023342016,112989.94576811144,94073.06093848479,143499.67461820538,125383.09399880099,TASK1
2026-05-26T09:35:24.128+00:00,941,65805,74543.62655206042,65406.613398386646,180519.7960757966,120003.5208467866,112992.35975651261,94075.2067059525,143501.82038567308,125383.63044066791,TASK1
2026-05-26T09:35:24.128+00:00,941,65806,74542.8889444934,65404.26646521884,180519.5949100965,120005.66661425431,112992.15859081251,94064.54492384732,143501.08277810607,125381.81994936704,TASK1
2026-05-26T09:35:24.128+00:00,941,65807,74537.32336012404,65406.680453620014,180514.2975466606,120007.00771892162,112989.27521577779,94069.64112158313,143494.7125309363,125377.86369059845,TASK1
2026-05-26T09:35:24.128+00:00,941,65808,74534.4399850893,65405.138183252595,180509.00018322468,120000.63747175186,112988.2693872773,94063.0026534799,143488.34228376654,125378.1319115319,TASK1
2026-05-26T09:35:24.128+00:00,941,65809,74533.16593565534,65401.986587284395,180506.11680818995,120000.1680851183,112988.2693872773,94063.27087441337,143484.11780406447,125377.12608303143,TASK1
2026-05-26T09:35:24.128+00:00,941,65810,74535.31170312305,65401.24897971737,180502.96521222175,120001.24096885216,112983.77668664178,94062.53326684634,143480.96620809627,125375.85203359746,TASK1
2026-05-26T09:35:24.128+00:00,941,65811,74532.42832808832,65398.09738374918,180499.81361625355,120005.80072472105,112981.16153254051,94066.28835991483,143481.23442902975,125377.19313826479,TASK1
2026-05-26T09:35:24.128+00:00,941,65812,74530.8860577209,65390.92247377902,180501.42294185434,120012.50624805763,112981.42975347397,94075.13965071914,143483.6484174309,125374.84620509698,TASK1
2026-05-26T09:35:24.128+00:00,941,65813,74529.34378735349,65396.823334315224,180501.95938372126,120013.57913179148,112984.38018374208,94075.13965071914,143485.52596396516,125376.99197256469,TASK1
2026-05-26T09:35:24.128+00:00,941,65814,74533.6353222889,65398.96910178293,180501.22177615424,120007.20888462172,112984.38018374208,94077.28541818685,143487.93995236635,125379.67418189933,TASK1
2026-05-26T09:35:24.128+00:00,941,65815,74538.99974095818,65402.45597391796,180499.1430639199,120008.01354742212,112982.03325057427,94075.74314781943,143488.2081732998,125381.81994936704,TASK1
2026-05-26T09:35:24.128+00:00,941,65816,74539.80440375856,65402.72419485142,180499.41128485336,120009.89109395636,112986.59300644314,94081.37578742216,143484.78835639814,125381.0823418,TASK1
2026-05-26T09:35:24.128+00:00,941,65817,74534.50704032266,65400.377261683614,180500.21594765375,120009.89109395636,112989.8116576447,94084.32621769026,143484.58719069805,125383.22810926771,TASK1
2026-05-26T09:35:24.128+00:00,941,65818,74532.69654902178,65401.986587284395,180497.60079355247,120006.20305612125,112985.58717794265,94073.12799371815,143483.04492033063,125380.07651329951,TASK1
2026-05-26T09:35:24.128+00:00,941,65819,74529.27673212012,65396.957444781954,180489.8894417154,119996.34593681645,112981.09447730714,94071.31750241728,143482.3073127636,125375.04737079708,TASK1
2026-05-26T09:35:24.128+00:00,941,65820,74528.27090361963,65395.683395348,180491.23054638272,120004.66078575382,112982.70380290793,94089.02008402588,143488.47639423326,125373.2368794962,TASK1
2026-05-26T09:35:24.128+00:00,941,65821,74535.78108975661,65396.48805814839,180495.52208131814,120007.074774155,112985.1177913091,94080.50406938841,143489.5492779671,125373.50510042965,TASK1
2026-05-26T09:35:24.128+00:00,941,65822,74535.04348218959,65402.12069775113,180496.594965052,120008.14765788885,112983.84374187514,94083.18627872305,143485.59301919854,125373.50510042965,TASK1
2026-05-26T09:35:24.128+00:00,941,65823,74536.3845868569,65400.84664831718,180497.39962785237,120011.90275095734,112987.33061401018,94080.57112462177,143482.70964416378,125373.50510042965,TASK1
2026-05-26T09:35:24.128+00:00,941,65824,74534.84231648949,65399.30437794976,180497.66784878584,120010.09225965646,112985.52012270929,94069.37290064966,143483.24608603073,125373.30393472956,TASK1
2026-05-26T09:35:24.128+00:00,941,65825,74529.54495305358,65399.84081981669,180496.93024121883,120010.09225965646,112982.10030580763,94075.0055402524,143481.97203659677,125372.834548096,TASK1
2026-05-26T09:35:24.128+00:00,941,65826,74531.95894145475,65404.13235475211,180496.46085458525,120014.11557365842,112981.36269824061,94079.29707518782,143479.89332436243,125376.05319929756,TASK1
2026-05-26T09:35:24.128+00:00,941,65827,74533.0318251886,65401.785421584296,180495.72324701824,120018.13888766037,112982.97202384139,94083.58861012325,143481.23442902975,125377.12608303143,TASK1
2026-05-26T09:35:24.128+00:00,941,65828,74537.32336012404,65400.511372150344,180492.03520918312,120021.89398072887,112986.19067504295,94087.6119241252,143484.72130116477,125376.12025453094,TASK1
2026-05-26T09:35:24.128+00:00,941,65829,74536.04931069008,65397.62799711561,180490.22471788223,120020.61993129492,112981.69797440743,94083.65566535661,143484.72130116477,125380.14356853289,TASK1
2026-05-26T09:35:24.128+00:00,941,65830,74532.89771472188,65402.99241578489,180489.75533124866,120025.71612903073,112978.8145993727,94084.99677002392,143488.2081732998,125382.55755693406,TASK1
2026-05-26T09:35:24.128+00:00,941,65831,74529.74611875368,65409.966160054944,180494.0468661841,120042.07760597201,112980.15570404002,94089.55652589281,143491.9632663683,125379.1377400324,TASK1
2026-05-26T09:35:24.128+00:00,941,65832,74532.96476995524,65401.18192448401,180499.1430639199,120020.15054466134,112986.32478550969,94088.01425552538,143499.2052315718,125383.16105403435,TASK1
2026-05-26T09:35:24.128+00:00,941,65833,74536.585752557,65404.66879661904,180500.14889242037,120019.34588186097,112989.61049194461,94096.12793876267,143502.62504847348,125386.98320233621,TASK1
2026-05-26T09:35:24.128+00:00,941,65834,74540.07262469204,65412.44720368948,180495.3879708514,120023.36919586292,112985.65423317603,94094.04922652832,143495.18191756986,125387.25142326967,TASK1
2026-05-26T09:35:24.128+00:00,941,65835,74539.60323805847,65417.27518049183,180490.8952702159,120025.78318426409,112983.30730000822,94095.6585521291,143494.17608906937,125394.22516753973,TASK1
2026-05-26T09:35:24.128+00:00,941,65836,74543.62655206042,65417.27518049183,180493.30925861705,120028.46539359873,112988.40349774403,94094.11628176169,143499.8087286721,125392.41467623886,TASK1
2026-05-26T09:35:24.128+00:00,941,65837,74538.59740955799,65410.90493332206,180492.03520918312,120030.8793819999,112990.0128233448,94098.13959576364,143501.1498333394,125390.87240587143,TASK1
2026-05-26T09:35:24.128+00:00,941,65838,74537.85980199096,65409.36266295465,180488.61539228144,120036.24380066917,112986.59300644314,94109.94131683605,143501.68627520636,125394.091057073,TASK1
2026-05-26T09:35:24.128+00:00,941,65839,74541.88311599291,65407.2839507203,180488.88361321492,120041.07177747152,112982.10030580763,94106.52149993439,143501.68627520636,125393.8898913729,TASK1
2026-05-26T09:35:24.128+00:00,941,65840,74540.87728749242,65407.082785020204,180488.68244751482,120026.38668136438,112982.10030580763,94100.15125276463,143499.87578390547,125388.32430700352,TASK1
2026-05-26T09:35:24.128+00:00,941,65841,74539.06679619155,65415.66585489104,180488.21306088124,120023.7715272631,112979.21693077289,94114.09874130473,143494.846641403,125384.6362691684,TASK1
2026-05-26T09:35:24.128+00:00,941,65842,74538.06096769105,65418.34806422568,180486.4025695804,120031.01349246663,112980.82625637368,94109.06959880229,143495.6513042034,125387.85492036997,TASK1
2026-05-26T09:35:24.128+00:00,941,65843,74535.44581358979,65418.34806422568,180481.10520614448,120024.64324529687,112982.16736104099,94098.4078166971,143493.57259196907,125386.58087093601,TASK1
2026-05-26T09:35:24.128+00:00,941,65844,74537.32336012404,65413.85536359016,180477.95361017628,120031.0805477,112980.35686974012,94110.74597963644,143489.07989133356,125378.333077232,TASK1
2026-05-26T09:35:24.128+00:00,941,65845,74538.12802292441,65409.899104821576,180481.97692417822,120037.24962916966,112982.23441627437,94093.64689512813,143485.39185349844,125374.64503939688,TASK1
2026-05-26T09:35:24.128+00:00,941,65846,74539.7373485252,65408.0886135207,180481.50753754465,120014.78612599208,112979.88748310656,94097.40198819662,143484.6542459314,125376.79080686459,TASK1
2026-05-26T09:35:24.128+00:00,941,65847,74537.3904153574,65404.9370175525,180476.4783950422,120019.07766092749,112978.61343367261,94104.9121743336,143483.6484174309,125378.9365743323,TASK1
2026-05-26T09:35:24.128+00:00,941,65848,74538.73152002471,65403.394747185084,180474.39968280788,120021.75987026213,112976.26650050479,94101.49235743194,143487.4035104994,125384.30099300157,TASK1
2026-05-26T09:35:24.128+00:00,941,65849,74539.80440375856,65412.78247985631,180473.66207524083,120023.90563772984,112975.52889293777,94100.21830799799,143487.2023447993,125384.8374348685,TASK1
2026-05-26T09:35:24.128+00:00,941,65850,74538.79857525809,65415.46468919094,180473.66207524083,120027.66073079834,112976.60177667162,94104.77806386688,143488.27522853317,125383.83160636801,TASK1
2026-05-26T09:35:24.128+00:00,941,65851,74539.335017125,65413.654197890064,180476.3442845755,120030.34294013296,112978.47932320587,94112.55647093731,143489.61633320048,125379.87534759942,TASK1
2026-05-26T09:35:24.416+00:00,942,65852,74539.13385142491,65406.21106698645,180473.46090954076,120031.41582386683,112978.74754413933,94109.13665403565,143488.07406283307,125379.40596096586,TASK1
2026-05-26T09:35:24.416+00:00,942,65853,74537.05513919056,65399.03615701629,180466.2859995706,120035.17091693531,112976.93705283846,94107.8626046017,143484.92246686487,125378.40013246538,TASK1
2026-05-26T09:35:24.416+00:00,942,65854,74535.51286882315,65412.44720368948,180463.1344036024,120040.20005943776,112976.40061097153,94106.85677610121,143479.96037959578,125368.74417886068,TASK1
2026-05-26T09:35:24.416+00:00,942,65855,74535.31170312305,65422.6395991611,180462.9332379023,120043.95515250626,112974.59011967065,94110.88009010316,143479.22277202876,125366.12902475942,TASK1
2026-05-26T09:35:24.416+00:00,942,65856,74532.16010715485,65421.36554972715,180465.8836681704,120043.48576587268,112973.85251210362,94112.48941570395,143478.48516446174,125367.73835036019,TASK1
2026-05-26T09:35:24.416+00:00,942,65857,74533.2329908887,65412.58131415621,180466.6883309708,120048.04552174157,112974.92539583748,94117.58561343976,143477.47933596125,125368.27479222712,TASK1
2026-05-26T09:35:24.416+00:00,942,65858,74536.1834211568,65405.40640418606,180463.80495593607,120057.96969627973,112970.96913706888,94122.41359024211,143474.32773999305,125360.29521945657,TASK1
2026-05-26T09:35:24.416+00:00,942,65859,74540.20673515876,65401.986587284395,180462.79912743557,120049.45368164226,112976.0653348047,94121.13954080816,143477.27817026115,125364.85497532546,TASK1
2026-05-26T09:35:24.416+00:00,942,65860,74537.85980199096,65410.56965715523,180465.4813367702,120045.76564380713,112976.86999760508,94116.64684017265,143482.64258893044,125368.87828932742,TASK1
2026-05-26T09:35:24.416+00:00,942,65861,74533.90354322238,65417.54340142529,180465.74955770368,120043.41871063932,112974.79128537075,94108.6672674021,143483.17903079736,125366.79957709307,TASK1
2026-05-26T09:35:24.416+00:00,942,65862,74534.97642695623,65414.39180545709,180464.74372920318,120036.7802425361,112975.59594817113,94119.66432567411,143479.22277202876,125366.06196952604,TASK1
2026-05-26T09:35:24.416+00:00,942,65863,74536.04931069008,65409.899104821576,180464.54256350308,120044.02220773962,112976.13239003807,94126.10162807723,143481.100318563,125369.2806207276,TASK1
2026-05-26T09:35:24.416+00:00,942,65864,74537.3904153574,65411.2402094889,180463.80495593607,120049.11840547543,112975.39478247103,94124.55935770982,143481.100318563,125365.32436195902,TASK1
2026-05-26T09:35:24.416+00:00,942,65865,74541.14550842589,65413.654197890064,180463.80495593607,120050.99595200967,112973.58429117016,94123.82175014279,143476.60761792748,125366.12902475942,TASK1
2026-05-26T09:35:24.416+00:00,942,65866,74539.87145899194,65419.823279359734,180464.60961873646,120057.70147534627,112972.31024173621,94132.40482001363,143475.87001036046,125369.61589689444,TASK1
2026-05-26T09:35:24.416+00:00,942,65867,74535.11053742295,65417.74456712539,180463.3355693025,120055.08632124499,112969.42686670147,94122.54770070883,143475.40062372692,125365.39141719238,TASK1
2026-05-26T09:35:24.416+00:00,942,65868,74536.45164209028,65411.10609902216,180456.96532213275,120056.42742591232,112966.8117126002,94112.69058140405,143473.59013242603,125364.38558869189,TASK1
2026-05-26T09:35:24.416+00:00,942,65869,74534.90937172285,65408.49094492089,180453.81372616455,120064.20583298276,112965.26944223279,94127.44273274454,143474.93123709335,125366.79957709307,TASK1
2026-05-26T09:35:24.416+00:00,942,65870,74538.12802292441,65398.6338256161,180455.95949363225,120038.52367860361,112967.95165156742,94112.75763663741,143475.46767896027,125368.67712362732,TASK1
2026-05-26T09:35:24.416+00:00,942,65871,74534.4399850893,65404.5346861523,180455.2218860652,120042.54699260557,112964.80005559922,94113.02585757087,143472.58430392554,125365.79374859258,TASK1
2026-05-26T09:35:24.416+00:00,942,65872,74534.70820602275,65409.36266295465,180451.80206916356,120051.66650434333,112962.45312243141,94117.04917157283,143474.19362952633,125364.25147822517,TASK1
2026-05-26T09:35:24.416+00:00,942,65873,74532.36127285495,65404.869962319135,180448.65047319536,120056.22626021222,112958.76508459629,94121.07248557478,143474.19362952633,125358.95411478926,TASK1
2026-05-26T09:35:24.416+00:00,942,65874,74525.99102568519,65399.03615701629,180447.64464469487,120059.44491141378,112955.07704676116,94124.55935770982,143472.38313822544,125357.94828628877,TASK1
2026-05-26T09:35:24.416+00:00,942,65875,74529.74611875368,65398.29854944927,180449.79041216258,120062.12712074841,112954.87588106107,94129.65555544563,143475.601789427,125362.77626309112,TASK1
2026-05-26T09:35:24.416+00:00,942,65876,74533.50121182218,65404.19940998547,180450.05863309605,120060.85307131446,112953.87005256058,94131.80132291334,143478.5522196951,125364.11736775843,TASK1
2026-05-26T09:35:24.416+00:00,942,65877,74531.95894145475,65405.004072785865,180449.05280459556,120062.99883878218,112954.67471536098,94129.18616881207,143477.81461212807,125363.37976019141,TASK1
2026-05-26T09:35:24.416+00:00,942,65878,74529.61200828695,65407.41806118704,180445.63298769388,120061.72478934823,112952.32778219317,94138.03745961636,143475.46767896027,125362.64215262438,TASK1
2026-05-26T09:35:24.416+00:00,942,65879,74530.75194725418,65411.0390437888,180443.35310975945,120051.86767004343,112955.61348862809,94141.39022128466,143475.13240279345,125364.85497532546,TASK1
2026-05-26T09:35:24.416+00:00,942,65880,74532.89771472188,65412.64836938958,180440.20151379125,120048.71607407523,112962.58723289815,94132.60598571373,143473.05369055909,125368.07362652702,TASK1
2026-05-26T09:35:24.416+00:00,942,65881,74535.84814498998,65408.423889687525,180440.46973472473,120042.34582690547,112966.6105469001,94132.60598571373,143471.77964112515,125369.14651026088,TASK1
2026-05-26T09:35:24.416+00:00,942,65882,74533.2329908887,65412.71542462295,180443.68838592627,120041.33999840498,112957.5580903957,94144.13948585266,143474.46185045977,125369.95117306127,TASK1
2026-05-26T09:35:24.416+00:00,942,65883,74530.34961585398,65413.520087423334,180441.8778946254,120040.60239083796,112957.3569246956,94150.04034638887,143478.7533853952,125373.4380451963,TASK1
2026-05-26T09:35:24.416+00:00,942,65884,74530.8860577209,65410.368491455134,180437.11697305643,120042.74815830567,112956.35109619511,94149.83918068877,143476.67467316086,125372.96865856274,TASK1
2026-05-26T09:35:24.416+00:00,942,65885,74531.15427865437,65408.82622108772,180437.38519398987,120040.93766700478,112953.73594209384,94149.83918068877,143477.21111502778,125374.30976323005,TASK1
2026-05-26T09:35:24.416+00:00,942,65886,74531.15427865437,65415.53174442431,180442.48139172568,120036.1767454358,112952.19367172643,94153.05783189033,143472.71841439226,125373.0357137961,TASK1
2026-05-26T09:35:24.416+00:00,942,65887,74530.41667108734,65422.2372677609,180447.84581039497,120030.61116106644,112951.18784322594,94165.1277738962,143470.63970215793,125370.42055969483,TASK1
2026-05-26T09:35:24.416+00:00,942,65888,74530.6848920208,65419.890334593096,180448.3822522619,120027.45956509824,112951.18784322594,94164.39016632918,143473.32191149256,125369.6829521278,TASK1
2026-05-26T09:35:24.416+00:00,942,65889,74530.4837263207,65416.470517691436,180443.88955162637,120028.26422789863,112951.72428509287,94163.38433782868,143470.17031552436,125369.4817864277,TASK1
2026-05-26T09:35:24.416+00:00,942,65890,74528.1367931529,65419.689168893,180443.15194405935,120027.25839939814,112955.74759909483,94168.21231463103,143468.62804515695,125371.62755389542,TASK1
2026-05-26T09:35:24.416+00:00,942,65891,74527.13096465242,65419.957389826464,180446.63881619438,120025.44790809725,112956.01582002829,94166.93826519708,143468.15865852337,125371.42638819532,TASK1
2026-05-26T09:35:24.416+00:00,942,65892,74529.00851118665,65418.95156132597,180450.39390926287,120026.78901276458,112955.54643339473,94172.30268386635,143468.42687945685,125375.44970219728,TASK1
2026-05-26T09:35:24.416+00:00,942,65893,74529.54495305358,65416.336407224706,180446.70587142775,120024.1738586633,112955.81465432819,94173.10734666674,143465.27528348865,125374.17565276333,TASK1
2026-05-26T09:35:24.416+00:00,942,65894,74525.58869428499,65414.79413685729,180444.35893825995,120022.09514642897,112952.39483742653,94172.90618096665,143464.26945498816,125373.16982426283,TASK1
2026-05-26T09:35:24.416+00:00,942,65895,74524.85108671797,65414.59297115719,180445.70004292726,120025.85023949745,112951.92545079297,94174.24728563396,143465.87878058894,125374.51092893015,TASK1
2026-05-26T09:35:24.416+00:00,942,65896,74526.72863325222,65406.881619320106,180445.70004292726,120030.40999536634,112954.33943919414,94178.80704150285,143464.06828928806,125373.2368794962,TASK1
2026-05-26T09:35:24.416+00:00,942,65897,74523.57703728402,65404.26646521884,180439.59801669096,120022.96686446272,112949.31029669169,94177.26477113544,143460.6484723864,125365.25730672566,TASK1
2026-05-26T09:35:24.416+00:00,942,65898,74525.99102568519,65405.33934895269,180432.69132765426,120012.573303291,112944.28115418926,94180.75164327046,143460.17908575284,125357.27773395511,TASK1
2026-05-26T09:35:24.416+00:00,942,65899,74523.37587158392,65408.02155828733,180430.34439448646,120025.44790809725,112939.25201168681,94187.18894567358,143454.07705951654,125351.9803705192,TASK1
2026-05-26T09:35:24.416+00:00,942,65900,74522.10182214997,65409.36266295465,180431.68549915377,120025.71612903073,112941.39777915452,94179.4775938365,143455.9546060508,125354.9308007873,TASK1
2026-05-26T09:35:24.416+00:00,942,65901,74521.90065644987,65404.869962319135,180430.6796706533,120001.91152118582,112939.58728785363,94176.05777693485,143456.49104791772,125354.9308007873,TASK1
2026-05-26T09:35:24.758+00:00,943,65902,74522.97354018372,65407.82039258723,180428.60095841895,120011.56747479051,112935.89925001851,94182.49507933797,143459.70969911927,125352.85208855296,TASK1
2026-05-26T09:35:24.758+00:00,943,65903,74530.21550538724,65411.0390437888,180429.40562121934,120018.80943999403,112935.89925001851,94187.32305614032,143464.53767592163,125355.26607695413,TASK1
2026-05-26T09:35:24.758+00:00,943,65904,74531.2883891211,65409.49677342138,180431.55138868705,120022.02809119559,112940.72722682086,94183.90323923866,143466.68344338934,125355.5342978876,TASK1
2026-05-26T09:35:24.758+00:00,943,65905,74531.2883891211,65401.785421584296,180430.54556018655,120024.71030053023,112943.67765708896,94191.41342537563,143465.94583582232,125353.99202752017,TASK1
2026-05-26T09:35:24.758+00:00,943,65906,74531.42249958783,65402.65713961806,180432.28899625406,120029.40416686585,112937.77679655276,94195.0344079774,143470.97497832475,125360.83166132351,TASK1
2026-05-26T09:35:24.758+00:00,943,65907,74526.39335708538,65405.071128019226,180431.28316775357,120031.81815526701,112934.3569796511,94196.64373357818,143475.53473419364,125364.58675439199,TASK1
2026-05-26T09:35:24.758+00:00,943,65908,74528.27090361963,65405.33934895269,180432.08783055397,120026.5207918311,112937.57563085266,94192.95569574306,143473.18780102584,125365.65963812584,TASK1
2026-05-26T09:35:24.758+00:00,943,65909,74523.77820298412,65401.38309018411,180430.2773392531,120016.93189345978,112933.88759301754,94192.75453004296,143469.49976319072,125367.26896372663,TASK1
2026-05-26T09:35:24.758+00:00,943,65910,74523.57703728402,65406.21106698645,180430.81378112003,120017.73655626018,112931.27243891626,94201.3375999138,143467.68927188983,125365.45847242574,TASK1
2026-05-26T09:35:24.758+00:00,943,65911,74527.60035128598,65410.234380988404,180430.34439448646,120024.71030053023,112932.07710171666,94201.87404178073,143467.21988525626,125364.45264392527,TASK1
2026-05-26T09:35:24.758+00:00,943,65912,74530.55078155408,65408.96033155445,180427.46101945173,120033.0251494676,112933.68642731744,94204.82447204883,143468.02454805665,125363.44681542477,TASK1
2026-05-26T09:35:24.758+00:00,943,65913,74531.89188622139,65404.19940998547,180427.99746131865,120030.40999536634,112933.9546482509,94201.94109701409,143468.02454805665,125363.44681542477,TASK1
2026-05-26T09:35:24.758+00:00,943,65914,74531.15427865437,65412.51425892285,180426.45519095124,120029.13594593239,112934.7593110513,94204.89152728219,143468.82921085705,125365.59258289248,TASK1
2026-05-26T09:35:24.758+00:00,943,65915,74527.7344617527,65416.805793858264,180422.76715311612,120029.94060873278,112937.17329945246,94208.91484128415,143468.35982422347,125364.85497532546,TASK1
2026-05-26T09:35:24.758+00:00,943,65916,74528.27090361963,65412.84953508968,180422.56598741602,120030.74527153316,112936.97213375237,94208.91484128415,143468.89626609042,125363.84914682497,TASK1
2026-05-26T09:35:24.758+00:00,943,65917,74532.29421762159,65409.16149725455,180423.3706502164,120033.15925993434,112936.77096805227,94207.10434998326,143471.84669635852,125360.96577179023,TASK1
2026-05-26T09:35:24.758+00:00,943,65918,74532.29421762159,65406.54634315328,180420.75549611513,120040.40122513786,112937.84385178612,94217.56496638835,143476.13823129394,125367.67129512683,TASK1
2026-05-26T09:35:24.758+00:00,943,65919,74526.99685418568,65402.85830531816,180414.3852489454,120039.9318385043,112933.35115115061,94214.14514948669,143478.28399876165,125368.47595792722,TASK1
2026-05-26T09:35:24.758+00:00,943,65920,74526.99685418568,65404.46763091894,180417.06745828,120046.10091997396,112930.73599704934,94215.486254154,143477.54639119463,125371.69460912878,TASK1
2026-05-26T09:35:24.758+00:00,943,65921,74531.55661005455,65413.318921723236,180418.6767838808,120056.56153637904,112931.54065984972,94211.79821631887,143473.59013242603,125369.61589689444,TASK1
2026-05-26T09:35:24.758+00:00,943,65922,74534.77526125613,65421.90199159407,180419.4814466812,120060.31662944754,112936.10041571861,94220.64950712318,143476.54056269414,125370.42055969483,TASK1
2026-05-26T09:35:24.758+00:00,943,65923,74534.0376536891,65423.77953812832,180422.16365601582,120042.94932400576,112946.02459025677,94226.55036765938,143485.39185349844,125380.07651329951,TASK1
2026-05-26T09:35:24.758+00:00,943,65924,74535.11053742295,65426.72996839642,180418.20739724723,120047.50907987464,112937.5085756193,94232.9876700625,143489.1469465669,125384.90449010186,TASK1
2026-05-26T09:35:24.758+00:00,943,65925,74535.91520022335,65422.2372677609,180414.5193594121,120053.67816134432,112933.28409591725,94235.40165846368,143488.14111806644,125379.60712666596,TASK1
2026-05-26T09:35:24.758+00:00,943,65926,74541.81606075955,65415.86702059114,180416.39690594634,120050.25834444264,112934.08875871763,94224.73987635851,143486.86706863248,125380.41178946635,TASK1
2026-05-26T09:35:24.758+00:00,943,65927,74539.20090665828,65405.20523848596,180418.2744524806,120048.71607407523,112933.08293021715,94228.22674849353,143483.17903079736,125377.26019349815,TASK1
2026-05-26T09:35:24.758+00:00,943,65928,74535.78108975661,65404.46763091894,180416.19574024624,120049.25251594216,112933.08293021715,94224.80693159187,143477.88166736145,125373.30393472956,TASK1
2026-05-26T09:35:24.758+00:00,943,65929,74529.41084258685,65409.02738678782,180415.7263536127,120043.95515250626,112933.88759301754,94219.50956815596,143473.12074579246,125370.42055969483,TASK1
2026-05-26T09:35:24.758+00:00,943,65930,74528.40501408637,65409.02738678782,180414.7205251122,120039.7306728042,112929.12667144855,94221.92355655713,143465.67761488885,125364.05031252507,TASK1
2026-05-26T09:35:24.758+00:00,943,65931,74526.05808091855,65410.6367123886,180416.06162977952,120041.07177747152,112925.7068545469,94222.99644029098,143460.38025145294,125363.31270495804,TASK1
2026-05-26T09:35:24.758+00:00,943,65932,74526.59452278548,65414.12358452363,180413.9829175452,120038.72484430371,112923.35992137909,94228.09263802679,143455.3511089505,125359.08822525598,TASK1
2026-05-26T09:35:24.758+00:00,943,65933,74532.22716238823,65412.84953508968,180407.0762285085,120038.99306523717,112926.84679351411,94226.81858859284,143454.07705951654,125357.81417582203,TASK1
2026-05-26T09:35:24.758+00:00,943,65934,74531.4895548212,65409.16149725455,180404.4610744072,120041.94349550527,112929.79722378221,94228.96435606055,143454.34528045,125361.30104795707,TASK1
2026-05-26T09:35:24.758+00:00,943,65935,74530.21550538724,65406.27812221982,180407.14328374187,120046.23503044069,112930.06544471567,94226.34920195928,143452.8030100826,125361.56926889053,TASK1
2026-05-26T09:35:24.758+00:00,943,65936,74528.94145595329,65404.19940998547,180409.0208302761,120052.40411191036,112925.03630221324,94219.97895478952,143454.9487775503,125357.8812310554,TASK1
2026-05-26T09:35:24.758+00:00,943,65937,74526.72863325222,65409.966160054944,180414.98874604568,120047.71024557474,112926.77973828075,94236.9439288311,143457.4968764182,125355.86957405442,TASK1
2026-05-26T09:35:24.758+00:00,943,65938,74528.337958853,65412.91659032304,180413.9829175452,120055.75687357865,112927.31618014767,94243.38123123423,143460.71552761976,125356.13779498788,TASK1
2026-05-26T09:35:24.758+00:00,943,65939,74535.84814498998,65418.012788058855,180407.8808913089,120070.2408039857,112926.57857258065,94234.06055379637,143458.9050363189,125356.67423685481,TASK1
2026-05-26T09:35:24.758+00:00,943,65940,74538.79857525809,65406.27812221982,180406.60684187492,120059.04258001359,112927.91967724796,94230.10429502778,143458.16742875185,125355.9366292878,TASK1
2026-05-26T09:35:24.758+00:00,943,65941,74532.69654902178,65401.24897971737,180410.09371400994,120032.8239837675,112928.18789818144,94222.66116412416,143458.43564968533,125358.88705955588,TASK1
2026-05-26T09:35:24.758+00:00,943,65942,74529.00851118665,65411.17315425553,180408.55144364253,120041.94349550527,112927.18206968094,94228.56202466036,143459.5085334192,125359.15528048936,TASK1
2026-05-26T09:35:24.758+00:00,943,65943,74532.76360425515,65410.97198855543,180405.13162674088,120049.18546070879,112924.03047371274,94236.3404317308,143462.72718462074,125360.49638515667,TASK1
2026-05-26T09:35:24.758+00:00,943,65944,74532.29421762159,65410.234380988404,180402.24825170613,120047.64319034138,112925.90802024699,94236.87687359774,143461.98957705373,125367.73835036019,TASK1
2026-05-26T09:35:24.758+00:00,943,65945,74531.2883891211,65405.47345941942,180402.78469357308,120052.20294621027,112930.46777611587,94239.2908619989,143463.86712358796,125372.29810622908,TASK1
2026-05-26T09:35:24.758+00:00,943,65946,74530.81900248754,65395.8845610481,180403.58935637347,120053.81227181104,112933.14998545051,94241.16840853315,143465.74467012222,125375.51675743064,TASK1
2026-05-26T09:35:24.758+00:00,943,65947,74530.61783678744,65408.22272398743,180403.85757730692,120050.39245490938,112933.41820638397,94240.96724283305,143465.74467012222,125374.24270799669,TASK1
2026-05-26T09:35:24.758+00:00,943,65948,74531.95894145475,65420.02444505983,180402.58352787298,120046.97263800772,112933.41820638397,94240.4978561995,143469.49976319072,125375.04737079708,TASK1
2026-05-26T09:35:24.758+00:00,943,65949,74525.85691521846,65416.87284909163,180400.7730365721,120044.08926297298,112929.99838948231,94240.4978561995,143467.95749282328,125375.583812664,TASK1
2026-05-26T09:35:24.758+00:00,943,65950,74525.65574951837,65410.50260192187,180401.309478439,120049.72190257572,112925.5056888468,94246.93515860262,143463.46479218776,125371.09111202849,TASK1
2026-05-26T09:35:24.758+00:00,943,65951,74527.26507511914,65402.25480821786,180400.30364993852,120055.62276311193,112923.96341847938,94248.81270513686,143459.5085334192,125367.93951606029,TASK1
2026-05-26T09:35:24.758+00:00,943,65952,74524.64992101787,65409.22855248792,180397.9567167707,120047.37496940792,112921.3482643781,94235.7369346305,143459.77675435264,125366.66546662633,TASK1
2026-05-26T09:35:24.758+00:00,943,65953,74523.37587158392,65418.07984329222,180396.4144464033,120052.73938807719,112924.56691557968,94254.24417903951,143465.40939395537,125367.73835036019,TASK1
2026-05-26T09:35:24.758+00:00,943,65954,74526.59452278548,65419.689168893,180400.1695394718,120052.53822237709,112926.44446211391,94247.33749000281,143467.28694048963,125367.26896372663,TASK1
2026-05-26T09:35:24.758+00:00,943,65955,74527.39918558588,65416.537572924804,180403.1199697399,120051.26417294313,112928.0537877147,94242.57656843384,143467.5551614231,125367.06779802653,TASK1
2026-05-26T09:35:24.758+00:00,943,65956,74522.90648495036,65410.16732575504,180406.070400008,120055.01926601163,112927.04795921421,94248.47742897004,143469.16448702387,125371.62755389542,TASK1
2026-05-26T09:35:24.758+00:00,943,65957,74519.75488898216,65410.4355466885,180410.6301558769,120056.09214974548,112925.77390978026,94240.22963526603,143470.50559169118,125376.1873097643,TASK1
2026-05-26T09:35:24.758+00:00,943,65958,74519.82194421552,65413.318921723236,180407.8808913089,120052.94055377728,112924.9021917465,94252.97012960556,143472.58430392554,125375.91908883084,TASK1
2026-05-26T09:35:24.758+00:00,943,65959,74521.69949074977,65414.66002639056,180401.77886507259,120056.96386777924,112923.896363246,94252.97012960556,143468.62804515695,125371.42638819532,TASK1
2026-05-26T09:35:24.758+00:00,943,65960,74520.42544131582,65409.09444202118,180399.9683737717,120061.52362364813,112925.23746791334,94245.52699870194,143469.70092889082,125371.69460912878,TASK1
2026-05-26T09:35:24.758+00:00,943,65961,74523.10765065046,65405.94284605299,180399.49898713815,120054.61693461143,112924.4998603463,94257.86516164127,143470.50559169118,125368.00657129365,TASK1
2026-05-26T09:35:24.758+00:00,943,65962,74522.63826401689,65412.64836938958,180399.29782143806,120053.07466424402,112927.18206968094,94261.35203377629,143471.57847542505,125367.80540559356,TASK1
2026-05-26T09:35:24.758+00:00,943,65963,74521.63243551641,65413.72125312343,180394.8051208025,120051.5323938766,112923.49403184581,94262.15669657668,143468.15865852337,125367.33601895999,TASK1
2026-05-26T09:35:24.758+00:00,943,65964,74521.16304888284,65413.9894740569,180387.3619898989,120049.99012350918,112921.9517614784,94258.73687967502,143466.07994628904,125365.79374859258,TASK1
2026-05-26T09:35:24.758+00:00,943,65965,74520.42544131582,65418.54922992578,180387.3619898989,120048.17963220831,112924.0975289461,94250.75730690447,143464.0012340547,125367.40307419337,TASK1
2026-05-26T09:35:24.758+00:00,943,65966,74518.34672908147,65415.39763395758,180388.43487363277,120047.44202464128,112922.01881671176,94250.75730690447,143462.99540555422,125370.62172539493,TASK1
2026-05-26T09:35:24.758+00:00,943,65967,74516.80445871406,65405.004072785865,180391.38530390087,120048.24668744167,112921.81765101168,94252.0984115718,143461.72135612025,125371.69460912878,TASK1
2026-05-26T09:35:24.758+00:00,943,65968,74517.87734244791,65412.51425892285,180391.6535248343,120051.73355957669,112921.3482643781,94251.09258307131,143460.71552761976,125369.61589689444,TASK1
2026-05-26T09:35:24.758+00:00,943,65969,74518.41378431483,65420.02444505983,180387.69726606575,120062.7306178487,112917.92844747644,94256.99344360751,143457.2957107181,125365.12319625892,TASK1
2026-05-26T09:35:24.758+00:00,943,65970,74519.21844711523,65418.75039562588,180384.27744916407,120071.85012958647,112921.147098678,94265.57651347834,143456.5581031511,125366.46430092624,TASK1
2026-05-26T09:35:24.758+00:00,943,65971,74521.63243551641,65417.20812525846,180387.7643212991,120053.67816134432,112925.97507548035,94270.40449028069,143455.28405371713,125369.41473119434,TASK1
2026-05-26T09:35:24.758+00:00,943,65972,74520.89482794938,65417.47634619192,180387.02671373208,120057.96969627973,112927.8526220146,94259.20626630858,143456.08871651752,125370.48761492819,TASK1
2026-05-26T09:35:24.758+00:00,943,65973,74513.1834761123,65414.05652929026,180383.07045496348,120058.77435908013,112923.896363246,94260.01092910898,143457.16160025136,125370.01822829463,TASK1
2026-05-26T09:35:24.758+00:00,943,65974,74516.40212731386,65410.6367123886,180381.79640552955,120055.62276311193,112920.20832541089,94261.62025470976,143456.69221361782,125364.18442299179,TASK1
2026-05-26T09:35:24.758+00:00,943,65975,74516.93856918078,65413.5871426567,180384.47861486417,120059.64607711388,112921.28120914474,94263.76602217747,143452.73595484922,125363.44681542477,TASK1
2026-05-26T09:35:24.758+00:00,943,65976,74520.15722038236,65422.97487532793,180386.3561613984,120067.96092605125,112916.2520666423,94269.93510364713,143449.31613794755,125362.97742879122,TASK1
2026-05-26T09:35:25.048+00:00,944,65977,74524.18053438432,65424.31597999525,180387.1608241988,120076.00755405516,112914.44157534142,94274.22663858255,143450.12080074794,125364.31853345853,TASK1
2026-05-26T09:35:25.048+00:00,944,65978,74529.81317398704,65420.091500293194,180387.42904513227,120069.90552781886,112916.85556374259,94265.17418207815,143452.26656821565,125368.61006839394,TASK1
2026-05-26T09:35:25.048+00:00,944,65979,74526.92979895232,65418.281008992315,180384.27744916407,120066.75393185066,112916.38617710903,94272.68436821514,143453.87589381644,125367.60423989347,TASK1
2026-05-26T09:35:25.048+00:00,944,65980,74520.82777271602,65414.32475022373,180383.8080625305,120070.77724585262,112916.18501140893,94271.67853971465,143455.21699848375,125363.64798112487,TASK1
2026-05-26T09:35:25.048+00:00,944,65981,74517.94439768128,65410.90493332206,180385.68560906476,120079.09209478999,112909.01010143878,94278.38406305124,143459.24031248572,125362.37393169092,TASK1
2026-05-26T09:35:25.048+00:00,944,65982,74526.52746755212,65415.73291012441,180385.48444336466,120082.04252505809,112912.49697357381,94274.69602521611,143455.82049558405,125358.14945198887,TASK1
2026-05-26T09:35:25.048+00:00,944,65983,74532.89771472188,65420.42677646002,180385.75266429814,120079.76264712366,112915.17918290844,94277.98173165105,143459.37442295245,125361.09988225697,TASK1
2026-05-26T09:35:25.048+00:00,944,65984,74532.42832808832,65423.108985794664,180382.60106832994,120080.29908899058,112914.44157534142,94272.9525891486,143460.71552761976,125362.17276599082,TASK1
2026-05-26T09:35:25.048+00:00,944,65985,74533.50121182218,65420.76205262685,180381.8634607629,120076.87927208892,112916.31912187567,94269.8009931804,143457.56393165156,125361.70337935726,TASK1
2026-05-26T09:35:25.048+00:00,944,65986,74532.49538332169,65419.4880031929,180382.6681235633,120077.95215582277,112916.11795617557,94287.503574789,143454.41233568336,125365.72669335922,TASK1
2026-05-26T09:35:25.048+00:00,944,65987,74530.6848920208,65419.756224126366,180382.19873692974,120081.43902795781,112919.06838644367,94292.06333065788,143459.24031248572,125374.57798416351,TASK1
2026-05-26T09:35:25.048+00:00,944,65988,74529.67906352032,65420.56088692676,180383.00339973014,120075.06878078803,112918.86722074357,94278.98756015154,143464.604731155,125375.91908883084,TASK1
2026-05-26T09:35:25.048+00:00,944,65989,74532.36127285495,65424.852421862175,180382.2657921631,120069.50319641866,112917.32495037615,94279.52400201846,143459.57558865254,125374.64503939688,TASK1
2026-05-26T09:35:25.048+00:00,944,65990,74534.77526125613,65417.94573282549,180383.87511776388,120071.91718481985,112920.00715971079,94285.96130442158,143458.56976015205,125377.05902779805,TASK1
2026-05-26T09:35:25.048+00:00,944,65991,74534.0376536891,65416.671683391534,180387.63021083237,120072.45362668677,112920.81182251118,94286.76596722197,143459.106202019,125376.5896411645,TASK1
2026-05-26T09:35:25.048+00:00,944,65992,74523.37587158392,65422.03610206081,180388.70309456624,120079.42737095682,112913.90513347449,94294.54437429243,143455.68638511733,125372.36516146244,TASK1
2026-05-26T09:35:25.048+00:00,944,65993,74521.56538028303,65422.8407648612,180380.72352179568,120084.25534775917,112905.12089790356,94288.97878992306,143446.9021495464,125364.92203055882,TASK1
2026-05-26T09:35:25.048+00:00,944,65994,74525.58869428499,65419.689168893,180377.84014676095,120062.86472831544,112906.46200257087,94292.73388299154,143445.8963210459,125365.72669335922,TASK1
2026-05-26T09:35:25.048+00:00,944,65995,74525.58869428499,65409.29560772128,180381.8634607629,120058.10380674645,112905.72439500385,94283.14498462022,143445.6951553458,125367.87246082693,TASK1
2026-05-26T09:35:25.048+00:00,944,65996,74522.43709831679,65410.90493332206,180380.58941132895,120060.24957421418,112901.76813623526,94278.6522839847,143443.88466404492,125368.14068176039,TASK1
2026-05-26T09:35:25.048+00:00,944,65997,74522.23593261669,65421.633770660614,180376.90137349383,120068.29620221809,112901.56697053516,94289.11290038978,143443.41527741138,125365.52552765912,TASK1
2026-05-26T09:35:25.048+00:00,944,65998,74522.23593261669,65422.70665439447,180374.01799845908,120069.6373068854,112904.2491798698,94283.27909508695,143445.56104487908,125361.83748982399,TASK1
2026-05-26T09:35:25.048+00:00,944,65999,74522.77237448363,65420.89616309359,180371.40284435783,120063.80350158256,112901.902246702,94279.8592781853,143446.9021495464,125359.75877758965,TASK1
2026-05-26T09:35:25.048+00:00,944,66000,74523.04059541709,65420.42677646002,180369.05591119002,120063.60233588246,112891.50868553028,94282.005045653,143442.9458907778,125355.26607695413,TASK1
2026-05-26T09:35:25.048+00:00,944,66001,74518.81611571503,65415.39763395758,180369.86057399042,120061.79184458159,112888.35708956208,94281.26743808597,143435.2345389407,125349.4322716513,TASK1
2026-05-26T09:35:25.048+00:00,944,66002,74515.9327406803,65409.56382865475,180370.12879492386,120064.74227484969,112885.47371452734,94285.5589730214,143434.4969313737,125351.04159725207,TASK1
2026-05-26T09:35:25.048+00:00,944,66003,74511.17181911132,65408.02155828733,180366.97719895566,120067.69270511779,112884.73610696032,94288.50940328948,143433.75932380668,125352.11448098593,TASK1
2026-05-26T09:35:25.048+00:00,944,66004,74510.16599061084,65409.09444202118,180361.67983551975,120066.41865568384,112885.27254882724,94288.3082375894,143432.4852743727,125352.3827019194,TASK1
2026-05-26T09:35:25.048+00:00,944,66005,74512.84819994547,65419.823279359734,180359.60112328542,120066.21748998374,112884.80316219368,94284.62019975427,143427.45613187028,125351.10865248545,TASK1
2026-05-26T09:35:25.048+00:00,944,66006,74515.53040928011,65423.041930561296,180359.8693442189,120064.40699868285,112886.41248779446,94294.27615335897,143428.26079467067,125355.40018742086,TASK1
2026-05-26T09:35:25.048+00:00,944,66007,74519.55372328206,65417.20812525846,180359.13173665185,120068.43031268481,112891.77690646374,94295.34903709282,143433.088771473,125361.0328270236,TASK1
2026-05-26T09:35:25.048+00:00,944,66008,74521.16304888284,65407.8874478206,180354.9072569498,120068.22914698471,112891.77690646374,94284.9554759211,143434.6980970738,125359.49055665618,TASK1
2026-05-26T09:35:25.048+00:00,944,66009,74520.15722038236,65404.46763091894,180353.09676564892,120067.4915394177,112891.0392988967,94286.83302245535,143433.15582670638,125358.4847281557,TASK1
2026-05-26T09:35:25.048+00:00,944,66010,74521.23010411621,65413.184811256506,180357.38830058434,120070.37491445242,112894.05678439818,94292.59977252482,143433.4911028732,125359.62466712292,TASK1
2026-05-26T09:35:25.048+00:00,944,66011,74518.88317094841,65416.40346245807,180358.4611843182,120071.17957725281,112892.2462930973,94297.42774932717,143431.9488325058,125360.42932992331,TASK1
2026-05-26T09:35:25.048+00:00,944,66012,74517.60912151446,65412.44720368948,180359.2658471186,120076.54399592208,112886.144266861,94303.32860986335,143429.87012027146,125366.86663232643,TASK1
2026-05-26T09:35:25.048+00:00,944,66013,74517.87734244791,65407.95450305397,180354.5049255496,120074.46528368775,112882.45622902588,94289.44817655662,143426.9867452367,125363.17859449131,TASK1
2026-05-26T09:35:25.048+00:00,944,66014,74505.60623474195,65406.680453620014,180345.4524690452,120068.09503651799,112877.96352839036,94288.44234805612,143424.37159113545,125356.27190545462,TASK1
2026-05-26T09:35:25.048+00:00,944,66015,74505.87445567541,65407.4851164204,180342.03265214353,120068.63147838491,112875.88481615602,94299.43940632814,143427.590242337,125357.8812310554,TASK1
2026-05-26T09:35:25.048+00:00,944,66016,74518.74906048167,65407.75333735387,180346.0559661455,120079.89675759038,112871.92855738742,94296.28781035994,143430.27245167166,125356.60718162145,TASK1
2026-05-26T09:35:25.048+00:00,944,66017,74516.93856918078,65404.869962319135,180346.0559661455,120070.0396382856,112868.2405195523,94282.4073770532,143427.3890766369,125354.26024845365,TASK1
2026-05-26T09:35:25.048+00:00,944,66018,74512.17764761181,65407.55217165377,180340.7586027096,120060.71896084773,112866.69824918488,94285.3578073213,143427.3890766369,125356.13779498788,TASK1
2026-05-26T09:35:25.048+00:00,944,66019,74510.36715631092,65408.356834454156,180335.9976811406,120064.74227484969,112866.69824918488,94283.27909508695,143425.31036440257,125355.40018742086,TASK1
2026-05-26T09:35:25.048+00:00,944,66020,74512.7811447121,65405.47345941942,180336.26590207408,120062.66356261534,112868.57579571912,94285.1566416212,143425.10919870247,125353.85791705345,TASK1
2026-05-26T09:35:25.048+00:00,944,66021,74512.579979012,65405.47345941942,180339.21633234218,120064.00466728266,112870.72156318683,94287.03418815543,143423.0304864681,125352.31564668602,TASK1
2026-05-26T09:35:25.048+00:00,944,66022,74510.2330458442,65402.05364251776,180339.0151666421,120072.05129528657,112870.9897841203,94290.52106029047,143423.0304864681,125352.85208855296,TASK1
2026-05-26T09:35:25.048+00:00,944,66023,74507.61789174292,65392.19652321297,180339.28338757553,120075.00172555467,112870.9897841203,94295.08081615934,143423.56692833506,125352.65092285286,TASK1
2026-05-26T09:35:25.048+00:00,944,66024,74506.61206324244,65399.70670934996,180335.0589078735,120072.92301332032,112870.52039748673,94298.56768829438,143420.14711143338,125346.81711755002,TASK1
2026-05-26T09:35:25.048+00:00,944,66025,74511.44004004479,65404.26646521884,180335.8635706739,120068.69853361827,112867.10058058507,94294.07498765887,143415.3861898644,125340.98331224719,TASK1
2026-05-26T09:35:25.048+00:00,944,66026,74517.60912151446,65409.09444202118,180338.27755907507,120067.42448418432,112869.78278991971,94295.68431325964,143417.5319573321,125344.20196344875,TASK1
2026-05-26T09:35:25.048+00:00,944,66027,74514.18930461278,65413.11775602314,180340.42332654278,120069.57025165204,112869.78278991971,94301.58517379584,143417.5319573321,125346.079509983,TASK1
2026-05-26T09:35:25.048+00:00,944,66028,74513.45169704576,65401.91953205103,180338.07639337497,120064.27288821613,112868.2405195523,94300.84756622883,143415.1850241643,125348.2252774507,TASK1
2026-05-26T09:35:25.048+00:00,944,66029,74510.56832201102,65399.84081981669,180335.19301834021,120058.17086197983,112866.69824918488,94295.55020279292,143414.71563753075,125344.26901868211,TASK1
2026-05-26T09:35:25.048+00:00,944,66030,74510.8365429445,65404.40057568557,180334.18718983972,120051.80061481007,112869.11223758606,94304.40149359721,143414.71563753075,125339.23987617968,TASK1
2026-05-26T09:35:25.048+00:00,944,66031,74510.36715631092,65406.814564086744,180338.2105038417,120046.50325137416,112869.38045851952,94304.93793546414,143413.97802996374,125342.19030644778,TASK1
2026-05-26T09:35:25.048+00:00,944,66032,74508.02022314312,65403.394747185084,180337.47289627467,120040.40122513786,112869.17929281942,94299.9087929617,143411.89931772937,125340.91625701383,TASK1
2026-05-26T09:35:25.048+00:00,944,66033,74507.55083650956,65400.77959308381,180335.6624049738,120040.93766700478,112870.25217655327,94308.49186283254,143409.28416362812,125339.10576571294,TASK1
2026-05-26T09:35:25.048+00:00,944,66034,74507.55083650956,65396.55511338176,180338.6128352419,120045.76564380713,112875.88481615602,94325.38978164074,143411.96637296275,125343.93374251529,TASK1
2026-05-26T09:35:25.048+00:00,944,66035,74497.15727533784,65391.52597087932,180337.6070067414,120039.1271757039,112866.02769685122,94306.68137153165,143407.20545139376,125340.51392561363,TASK1
2026-05-26T09:35:25.048+00:00,944,66036,74492.1281328354,65392.86707554663,180334.18718983972,120028.73361453219,112862.3396590161,94302.18867089614,143404.05385542556,125336.28944591158,TASK1
2026-05-26T09:35:25.048+00:00,944,66037,74501.7840864401,65395.01284301434,180333.4495822727,120024.24091389668,112859.9927258483,94310.50351983351,143402.24336412468,125337.36232964543,TASK1
2026-05-26T09:35:25.048+00:00,944,66038,74507.41672604284,65404.13235475211,180333.71780320618,120017.87066672691,112858.45045548088,94313.72217103507,143402.51158505815,125338.70343431275,TASK1
2026-05-26T09:35:25.048+00:00,944,66039,74505.60623474195,65404.66879661904,180334.52246600657,120013.91440795832,112860.05978108165,94316.13615943625,143402.77980599162,125340.31275991353,TASK1
2026-05-26T09:35:25.048+00:00,944,66040,74501.64997597336,65401.24897971737,180338.0093381416,120020.61993129492,112858.24928978078,94324.45100837362,143403.31624785854,125340.31275991353,TASK1
2026-05-26T09:35:25.048+00:00,944,66041,74502.45463877375,65405.138183252595,180343.37375681088,120018.00477719364,112860.66327818195,94324.98745024056,143405.39496009288,125341.58680934749,TASK1
2026-05-26T09:35:25.048+00:00,944,66042,74499.83948467248,65403.86413381864,180341.29504457652,120015.38962309237,112860.66327818195,94329.01076424251,143402.24336412468,125344.00079774865,TASK1
