timestamp_utc,packet_index,sample_index,AF3,AF4,F3,F4,FC5,FC6,O2,O1,label
2026-05-26T09:23:45.180+00:00,1222,90252,119488.26843360288,112368.20964434261,145356.23286440762,104337.20550980634,117593.01931774846,103455.69741197793,172145.60325689355,155526.90244041712,TASK1
2026-05-26T09:23:45.180+00:00,1222,90253,119492.02352667136,112368.47786527609,145359.71973654267,104339.88771914097,117598.11551548427,103459.18428411297,172151.23589649628,155528.77998695135,TASK1
2026-05-26T09:23:45.180+00:00,1222,90254,119491.82236097126,112370.08719087686,145359.2503499091,104340.69238194136,117598.11551548427,103461.59827251414,172150.23006799578,155528.3106003178,TASK1
2026-05-26T09:23:45.180+00:00,1222,90255,119489.20720686999,112372.23295834457,145353.41654460627,104339.68655344087,117593.62281484876,103459.51956027979,172143.85982082604,155522.2085740815,TASK1
2026-05-26T09:23:45.180+00:00,1222,90256,119487.39671556912,112371.76357171101,145350.5331695715,104337.87606214,117589.93477701362,103461.39710681404,172142.04932952515,155519.8616409137,TASK1
2026-05-26T09:23:45.180+00:00,1222,90257,119488.2013783695,112373.10467637832,145349.7955620045,104340.02182960771,117590.73943981402,103469.17551388449,172144.46331792633,155521.47096651446,TASK1
2026-05-26T09:23:45.180+00:00,1222,90258,119489.0060411699,112374.98222291257,145348.52151257056,104338.4795592403,117591.54410261441,103466.82858071668,172143.99393129276,155523.34851304872,TASK1
2026-05-26T09:23:45.180+00:00,1222,90259,119488.0002126694,112374.78105721247,145345.10169566888,104336.66906793941,117591.34293691431,103465.82275221619,172142.18343999187,155523.88495491564,TASK1
2026-05-26T09:23:45.180+00:00,1222,90260,119487.26260510238,112373.23878684506,145344.63230903534,104336.46790223931,117592.41582064817,103465.08514464917,172140.64116962446,155521.00157988092,TASK1
2026-05-26T09:23:45.180+00:00,1222,90261,119487.26260510238,112373.23878684506,145346.2416346361,104338.0772278401,117592.21465494807,103466.42624931649,172143.3233789591,155522.6109054817,TASK1
2026-05-26T09:23:45.180+00:00,1222,90262,119488.6037097697,112373.775228712,145348.3874021038,104338.88189064049,117593.55575961538,103469.64490051805,172147.34669296106,155524.48845201594,TASK1
2026-05-26T09:23:45.180+00:00,1222,90263,119491.01769817088,112375.38455431277,145350.5331695715,104339.15011157395,117595.43330614963,103470.7177842519,172150.83356509608,155525.29311481633,TASK1
2026-05-26T09:23:45.180+00:00,1222,90264,119492.89524470511,112375.9209961797,145353.48359983962,104339.41833250741,117597.31085268388,103471.5224470523,172152.9793325638,155527.70710321752,TASK1
2026-05-26T09:23:45.180+00:00,1222,90265,119492.69407900503,112376.7256589801,145353.48359983962,104339.21716680731,117598.11551548427,103473.13177265308,172152.24172499677,155526.43305378355,TASK1
2026-05-26T09:23:45.180+00:00,1222,90266,119490.61536677068,112376.99387991356,145353.28243413952,104338.21133830682,117599.45662015158,103473.66821452,172151.7723383632,155525.69544621653,TASK1
2026-05-26T09:23:45.180+00:00,1222,90267,119488.0002126694,112375.7198304796,145352.5448265725,104335.86440513901,117597.64612885071,103472.66238601951,172149.69362612886,155522.54385024833,TASK1
2026-05-26T09:23:45.180+00:00,1222,90268,119492.02352667136,112374.17756011219,145353.08126843942,104336.13262607249,117600.06011725188,103473.4670488199,172149.49246042877,155521.8062426813,TASK1
2026-05-26T09:23:45.180+00:00,1222,90269,119492.02352667136,112373.1717316117,145353.08126843942,104334.3221347716,117603.27876845344,103474.53993255376,172149.76068136224,155522.87912641515,TASK1
2026-05-26T09:23:45.180+00:00,1222,90270,119490.48125630394,112372.43412404467,145351.0025562051,104332.77986440419,117602.27293995296,103476.417479088,172151.90644882995,155526.36599855017,TASK1
2026-05-26T09:23:45.180+00:00,1222,90271,119491.82236097126,112373.775228712,145352.07543993896,104333.85274813804,117602.07177425286,103478.83146748917,172154.58865816458,155529.04820788483,TASK1
2026-05-26T09:23:45.180+00:00,1222,90272,119492.89524470511,112374.31167057891,145354.22120740666,104333.65158243795,117602.33999518632,103480.1725721565,172156.73442563228,155531.99863815293,TASK1
2026-05-26T09:23:45.180+00:00,1222,90273,119494.705736006,112377.06093514692,145354.95881497368,104335.66323943892,117605.69275685462,103482.85478149113,172161.4282919679,155535.75373122143,TASK1
2026-05-26T09:23:45.180+00:00,1222,90274,119494.5045703059,112376.85976944682,145354.22120740666,104335.19385280536,117607.83852432233,103479.70318552294,172163.30583850216,155534.21146085399,TASK1
2026-05-26T09:23:45.180+00:00,1222,90275,119494.03518367234,112376.1221618798,145353.48359983962,104332.31047777063,117606.56447488838,103478.16091515552,172164.64694316947,155533.20563235352,TASK1
2026-05-26T09:23:45.180+00:00,1222,90276,119493.83401797224,112375.11633337931,145352.7459922726,104331.84109113706,117605.55864638789,103483.5253338248,172167.3291525041,155535.08317888775,TASK1
2026-05-26T09:23:45.180+00:00,1222,90277,119494.9069017061,112375.38455431277,145354.0870969399,104332.10931207053,117607.97263478905,103483.5253338248,172166.3233240036,155533.54090852034,TASK1
2026-05-26T09:23:45.180+00:00,1222,90278,119494.705736006,112376.7256589801,145353.8859312398,104332.377533004,117609.31373945638,103483.3241681247,172165.3174955031,155533.54090852034,TASK1
2026-05-26T09:23:45.180+00:00,1222,90279,119493.96812843898,112378.33498458087,145357.37280337486,104334.25507953824,117611.99594879101,103483.3241681247,172166.39037923698,155533.54090852034,TASK1
2026-05-26T09:23:45.180+00:00,1222,90280,119493.96812843898,112377.59737701385,145358.4456871087,104333.78569290468,117613.06883252486,103480.44079308996,172168.5361467047,155533.54090852034,TASK1
2026-05-26T09:23:45.180+00:00,1222,90281,119494.77279123936,112378.6702607477,145358.2445214086,104332.77986440419,117614.14171625873,103480.23962738986,172169.60903043853,155533.07152188677,TASK1
2026-05-26T09:23:45.180+00:00,1222,90282,119494.3034046058,112380.01136541502,145354.55648357348,104332.77986440419,117614.67815812565,103481.31251112372,172165.9209926034,155528.84704218473,TASK1
2026-05-26T09:23:45.180+00:00,1222,90283,119493.29757610531,112380.27958634848,145351.1366666718,104334.65741093844,117611.52656215745,103482.11717392411,172163.03761756868,155525.69544621653,TASK1
2026-05-26T09:23:45.180+00:00,1222,90284,119492.55996853829,112381.08424914887,145349.32617537095,104337.0713993396,117608.10674525579,103483.19005765796,172162.5682309351,155525.69544621653,TASK1
2026-05-26T09:23:45.180+00:00,1222,90285,119493.63285227215,112381.35247008233,145347.51568407007,104338.41250400692,117609.17962898964,103484.79938325875,172164.44577746937,155527.84121368424,TASK1
2026-05-26T09:23:45.180+00:00,1222,90286,119494.705736006,112382.96179568312,145348.5885678039,104340.55827147464,117613.47116392506,103488.28625539377,172168.20087053787,155531.0598648858,TASK1
2026-05-26T09:23:45.180+00:00,1222,90287,119496.04684067331,112384.83934221737,145349.92967247125,104342.43581800887,117615.61693139277,103492.04134846227,172170.8830798725,155534.01029515392,TASK1
2026-05-26T09:23:45.180+00:00,1222,90288,119499.53371280835,112386.44866781814,145351.80721900548,104342.97225987581,117616.68981512664,103491.30374089524,172174.10173107407,155537.76538822238,TASK1
2026-05-26T09:23:45.180+00:00,1222,90289,119501.4112593426,112386.44866781814,145353.41654460627,104341.96643137532,117617.76269886049,103490.56613332822,172173.36412350702,155538.57005102278,TASK1
2026-05-26T09:23:45.180+00:00,1222,90290,119501.4112593426,112388.59443528586,145352.67893703925,104343.03931510917,117617.02509129346,103492.71190079593,172172.89473687348,155540.17937662356,TASK1
2026-05-26T09:23:45.180+00:00,1222,90291,119502.48414307645,112390.74020275357,145353.48359983962,104344.64864070996,117619.43907969464,103491.70607229543,172171.888908373,155540.17937662356,TASK1
2026-05-26T09:23:45.180+00:00,1222,90292,119503.5570268103,112390.53903705347,145353.28243413952,104345.45330351035,117619.97552156156,103487.74981352684,172170.0784170721,155537.83244345576,TASK1
2026-05-26T09:23:45.180+00:00,1222,90293,119504.89813147762,112391.0754789204,145350.9355009717,104347.06262911113,117619.77435586146,103494.7235577969,172169.60903043853,155535.75373122143,TASK1
2026-05-26T09:23:45.180+00:00,1222,90294,119506.3062913783,112395.5681795559,145351.87427423886,104350.34833554606,117621.24957099551,103503.70895906794,172173.76645490722,155539.70998999,TASK1
2026-05-26T09:23:45.180+00:00,1222,90295,119509.25672164641,112397.1775051567,145354.55648357348,104350.88477741298,117623.66355939668,103504.51362186833,172174.30289677417,155544.00152492544,TASK1
2026-05-26T09:23:45.180+00:00,1222,90296,119510.59782631372,112397.1775051567,145354.0870969399,104349.07428611211,117623.66355939668,103504.78184280179,172174.30289677417,155544.53796679236,TASK1
2026-05-26T09:23:45.180+00:00,1222,90297,119509.59199781323,112395.36701385581,145352.00838470558,104345.38624827698,117622.6577308962,103502.9713515009,172172.76062640673,155542.459254558,TASK1
2026-05-26T09:23:45.180+00:00,1222,90298,119507.78150651236,112393.020080688,145351.0025562051,104343.03931510917,117621.92012332917,103501.4290811335,172172.76062640673,155543.53213829186,TASK1
2026-05-26T09:23:45.180+00:00,1222,90299,119506.77567801187,112392.8189149879,145348.92384397076,104341.76526567522,117620.64607389522,103500.423252633,172172.29123977319,155543.80035922534,TASK1
2026-05-26T09:23:45.180+00:00,1222,90300,119505.76984951137,112393.6235777883,145346.57691080295,104338.61366970702,117620.44490819512,103499.14920319905,172168.8714228715,155539.84410045674,TASK1
2026-05-26T09:23:45.180+00:00,1222,90301,119502.88647447665,112392.61774928782,145342.62065203435,104336.53495747269,117619.7073006281,103499.95386599944,172167.06093157062,155537.76538822238,TASK1
2026-05-26T09:23:45.180+00:00,1222,90302,119503.69113727703,112394.49529582205,145342.62065203435,104337.0713993396,117621.31662622887,103501.0267497333,172170.2795827722,155541.78870222435,TASK1
2026-05-26T09:23:45.180+00:00,1222,90303,119505.03224194435,112396.10462142284,145345.8393032359,104337.0713993396,117621.8530680958,103498.94803749895,172172.4253502399,155544.20269062553,TASK1
2026-05-26T09:23:45.180+00:00,1222,90304,119505.56868381127,112394.0259091885,145345.6381375358,104337.33962027307,117622.92595182966,103497.94220899847,172173.2300130403,155544.73913249245,TASK1
2026-05-26T09:23:45.180+00:00,1222,90305,119506.37334661167,112390.60609228683,145343.82764623495,104334.99268710526,117626.94926583162,103494.79061303027,172173.0288473402,155545.54379529285,TASK1
2026-05-26T09:23:45.180+00:00,1222,90306,119507.71445127898,112390.13670565328,145343.0900386679,104333.18219580439,117626.94926583162,103492.71190079593,172172.55946070663,155542.92864119157,TASK1
2026-05-26T09:23:45.180+00:00,1222,90307,119509.59199781323,112392.01425218752,145344.96758520216,104335.05974233864,117626.21165826458,103498.88098226559,172174.4370072409,155544.53796679236,TASK1
2026-05-26T09:23:45.180+00:00,1222,90308,119510.12843968016,112393.08713592138,145347.38157360334,104335.86440513901,117628.08920479883,103502.90429626754,172177.11921657552,155548.82950172777,TASK1
2026-05-26T09:23:45.180+00:00,1222,90309,119509.12261117967,112395.23290338909,145345.57108230246,104337.4737307398,117628.3574257323,103505.58650560219,172178.46032124283,155549.09772266124,TASK1
2026-05-26T09:23:45.180+00:00,1222,90310,119509.39083211313,112397.11044992333,145345.8393032359,104339.08305634059,117628.62564666577,103505.38533990209,172178.99676310978,155548.09189416075,TASK1
2026-05-26T09:23:45.180+00:00,1222,90311,119509.6590530466,112397.64689179025,145346.10752416938,104340.4241610079,117629.96675133308,103506.19000270248,172180.87430964402,155551.57876629577,TASK1
2026-05-26T09:23:45.180+00:00,1222,90312,119508.92144547957,112398.45155459065,145345.90635846928,104341.2288238083,117629.96675133308,103508.87221203711,172180.67314394392,155551.37760059568,TASK1
2026-05-26T09:23:45.180+00:00,1222,90313,119508.72027977947,112397.71394702363,145344.90052996879,104339.95477437435,117627.35159723181,103507.59816260316,172179.39909450998,155551.9140424626,TASK1
2026-05-26T09:23:45.180+00:00,1222,90314,119510.32960538026,112396.9763394566,145344.43114333524,104339.95477437435,117626.88221059825,103506.3241131692,172179.9355363769,155551.17643489558,TASK1
2026-05-26T09:23:45.180+00:00,1222,90315,119510.86604724718,112397.78100225699,145343.6935357682,104339.75360867425,117626.68104489816,103506.3241131692,172179.19792880988,155547.22017612698,TASK1
2026-05-26T09:23:45.180+00:00,1222,90316,119510.39666061362,112398.85388599084,145343.6935357682,104340.29005054117,117628.29037049893,103507.1287759696,172178.46032124283,155542.99569642494,TASK1
2026-05-26T09:23:45.180+00:00,1222,90317,119511.20132341402,112399.1221069243,145344.76641950206,104341.36293427502,117631.50902170049,103508.20165970345,172178.99676310978,155541.98986792445,TASK1
2026-05-26T09:23:45.180+00:00,1222,90318,119511.46954434748,112400.73143252509,145344.76641950206,104342.97225987581,117630.77141413347,103509.2745434373,172180.60608871054,155542.2580888579,TASK1
2026-05-26T09:23:45.180+00:00,1222,90319,119513.48120134846,112404.68769129367,145346.6439660363,104346.32502154411,117632.91718160118,103508.06754923672,172186.97633588032,155546.4155133266,TASK1
2026-05-26T09:23:45.180+00:00,1222,90320,119513.01181471489,112404.21830466011,145346.91218696977,104345.31919304362,117633.99006533503,103508.06754923672,172187.7809986807,155545.4096848261,TASK1
2026-05-26T09:23:45.180+00:00,1222,90321,119514.62114031568,112403.4806970931,145349.32617537095,104344.84980641006,117633.52067870148,103511.28620043829,172185.4340655129,155542.79453072484,TASK1
2026-05-26T09:23:45.180+00:00,1222,90322,119520.52200085188,112403.4806970931,145351.20372190519,104345.92269014391,117635.39822523572,103511.82264230521,172183.35535327854,155541.25226035743,TASK1
2026-05-26T09:23:45.180+00:00,1222,90323,119520.32083515178,112403.279531393,145349.92967247125,104347.80023667816,117636.20288803612,103513.16374697252,172184.96467887933,155541.78870222435,TASK1
2026-05-26T09:23:45.180+00:00,1222,90324,119519.58322758475,112403.81597325992,145349.46028583767,104347.80023667816,117637.54399270343,103512.15791847205,172183.95885037884,155540.51465279039,TASK1
2026-05-26T09:23:45.180+00:00,1222,90325,119521.72899505247,112402.81014475944,145350.26494863807,104345.72152444381,117638.08043457035,103512.15791847205,172182.6848009449,155540.04526615684,TASK1
2026-05-26T09:23:45.180+00:00,1222,90326,119521.72899505247,112401.80431625895,145349.52734107105,104344.71569594332,117637.34282700333,103512.96258127243,172183.4894637453,155540.58170802376,TASK1
2026-05-26T09:23:45.592+00:00,1223,90327,119521.52782935237,112402.34075812587,145349.7955620045,104345.25213781025,117638.68393167065,103512.76141557234,172185.90345214645,155542.72747549147,TASK1
2026-05-26T09:23:45.592+00:00,1223,90328,119521.79605028583,112402.8771999928,145350.06378293797,104346.59324247757,117639.22037353758,103513.29785743926,172186.97633588032,155547.28723136036,TASK1
2026-05-26T09:23:45.592+00:00,1223,90329,119521.79605028583,112402.6760342927,145350.06378293797,104347.39790527796,117639.7568154045,103512.8284708057,172186.50694924674,155548.3601150942,TASK1
2026-05-26T09:23:45.592+00:00,1223,90330,119521.59488458573,112402.94425522616,145350.6002248049,104348.73900994528,117641.90258287222,103513.90135453956,172190.26204231524,155552.6516500296,TASK1
2026-05-26T09:23:45.592+00:00,1223,90331,119521.59488458573,112402.74308952606,145349.86261723787,104348.26962331172,117644.31657127339,103514.43779640648,172191.3349260491,155555.33385936427,TASK1
2026-05-26T09:23:45.592+00:00,1223,90332,119521.59488458573,112404.35241512685,145348.32034687046,104349.07428611211,117645.12123407378,103514.70601733995,172188.1833300809,155555.60208029771,TASK1
2026-05-26T09:23:45.592+00:00,1223,90333,119522.13132645265,112404.88885699377,145347.0462974365,104348.87312041201,117646.4623387411,103515.7789010738,172186.6410597135,155556.94318496506,TASK1
2026-05-26T09:23:45.592+00:00,1223,90334,119522.93598925305,112404.41947036021,145346.040468936,104350.75066694626,117647.53522247495,103515.5777353737,172186.17167307992,155558.55251056582,TASK1
2026-05-26T09:23:45.592+00:00,1223,90335,119526.42286138808,112406.8334587614,145347.91801547026,104353.96931814782,117650.2174318096,103521.47859590991,172188.04921961416,155561.23471990047,TASK1
2026-05-26T09:23:45.592+00:00,1223,90336,119526.22169568799,112407.36990062831,145347.71684977016,104355.84686468207,117648.94338237564,103524.96546804493,172187.0433911137,155559.1560076661,TASK1
2026-05-26T09:23:45.592+00:00,1223,90337,119525.2158671875,112406.36407212782,145348.52151257056,104355.64569898197,117648.74221667554,103523.69141861098,172187.5798329806,155558.15017916562,TASK1
2026-05-26T09:23:45.592+00:00,1223,90338,119525.2158671875,112406.36407212782,145350.3990591048,104355.1763123484,117648.54105097544,103523.22203197742,172189.45737951485,155559.49128383296,TASK1
2026-05-26T09:23:45.592+00:00,1223,90339,119526.82519278828,112405.09002269387,145350.9355009717,104354.43870478138,117647.80344340841,103522.48442441039,172188.9879928813,155559.0218971994,TASK1
2026-05-26T09:23:45.592+00:00,1223,90340,119526.82519278828,112404.35241512685,145350.46611433817,104354.23753908128,117648.87632714226,103521.21037497644,172189.52443474822,155559.82655999978,TASK1
2026-05-26T09:23:45.592+00:00,1223,90341,119527.62985558866,112404.35241512685,145350.26494863807,104354.50576001474,117652.09497834384,103521.00920927634,172191.40198128246,155561.43588560057,TASK1
2026-05-26T09:23:45.592+00:00,1223,90342,119528.1662974556,112405.15707792724,145351.06961143846,104355.04220188168,117651.62559171027,103522.61853487713,172193.81596968364,155562.5087693344,TASK1
2026-05-26T09:23:45.592+00:00,1223,90343,119527.69691082204,112405.15707792724,145351.3378323719,104356.11508561553,117649.010437609,103523.69141861098,172194.8888534175,155562.3076036343,TASK1
2026-05-26T09:23:45.592+00:00,1223,90344,119527.22752418846,112404.95591222715,145350.6002248049,104355.3774780485,117649.54687947594,103521.8809273101,172196.22995808482,155561.03355420037,TASK1
2026-05-26T09:23:45.592+00:00,1223,90345,119527.02635848838,112404.95591222715,145349.32617537095,104354.37164954802,117650.61976320979,103522.41736917703,172197.30284181866,155560.83238850028,TASK1
2026-05-26T09:23:45.592+00:00,1223,90346,119528.1662974556,112405.69351979416,145351.20372190519,104354.57281524812,117653.57019347789,103524.76430234483,172200.92382442043,155562.84404550126,TASK1
2026-05-26T09:23:45.592+00:00,1223,90347,119529.50740212291,112408.10750819535,145352.00838470558,104355.64569898197,117654.9112981452,103525.56896514523,172201.46026628735,155562.64287980116,TASK1
2026-05-26T09:23:45.592+00:00,1223,90348,119530.3120649233,112409.1803919292,145354.42237310676,104355.44453328187,117654.9112981452,103521.61270637663,172198.84511218607,155558.15017916562,TASK1
2026-05-26T09:23:45.592+00:00,1223,90349,119528.76979455589,112405.76057502754,145353.6847655397,104352.82937918059,117653.3690277778,103524.56313664473,172195.15707435095,155551.77993199587,TASK1
2026-05-26T09:23:45.592+00:00,1223,90350,119529.03801548935,112405.0229674605,145354.75764927358,104353.63404198099,117651.82675741037,103526.44068317898,172193.883024917,155549.1647778946,TASK1
2026-05-26T09:23:45.592+00:00,1223,90351,119527.22752418846,112404.28535989349,145354.75764927358,104353.63404198099,117650.28448704295,103527.24534597938,172195.76057145125,155548.9636121945,TASK1
2026-05-26T09:23:45.592+00:00,1223,90352,119525.95347475451,112404.55358082695,145354.75764927358,104353.43287628089,117651.08914984335,103524.89841281157,172197.6381179855,155550.57293779528,TASK1
2026-05-26T09:23:45.592+00:00,1223,90353,119524.67942532056,112405.89468549426,145355.02587020706,104353.70109721436,117652.43025451066,103524.16080524454,172198.71100171935,155552.18226339607,TASK1
2026-05-26T09:23:45.592+00:00,1223,90354,119523.13715495315,112404.62063606031,145354.28826264,104353.96931814782,117653.77135917799,103526.57479364572,172199.24744358627,155553.2551471299,TASK1
2026-05-26T09:23:45.592+00:00,1223,90355,119521.59488458573,112404.15124942675,145351.40488760528,104353.96931814782,117655.64890571222,103527.11123551264,172199.24744358627,155555.13269366417,TASK1
2026-05-26T09:23:45.592+00:00,1223,90356,119520.05261421832,112405.76057502754,145350.9355009717,104355.84686468207,117654.9112981452,103528.18411924649,172200.05210638666,155555.6691355311,TASK1
2026-05-26T09:23:45.592+00:00,1223,90357,119520.05261421832,112406.56523782792,145353.8859312398,104356.91974841592,117655.44774001212,103528.72056111343,172199.85094068656,155553.8586442302,TASK1
2026-05-26T09:23:45.592+00:00,1223,90358,119521.12549795218,112405.29118839397,145352.07543993896,104356.45036178235,117656.52062374598,103528.72056111343,172196.43112378492,155550.43882732856,TASK1
2026-05-26T09:23:45.592+00:00,1223,90359,119522.19838168603,112402.13959242577,145350.26494863807,104353.29876581416,117658.39817028023,103526.10540701215,172194.62063248403,155550.97526919548,TASK1
2026-05-26T09:23:45.592+00:00,1223,90360,119523.00304448642,112401.13376392529,145350.26494863807,104352.29293731367,117659.47105401408,103526.64184887908,172193.883024917,155552.58459479627,TASK1
2026-05-26T09:23:45.592+00:00,1223,90361,119523.27126541988,112401.93842672567,145349.7955620045,104353.63404198099,117657.12412084627,103528.78761634679,172195.76057145125,155552.58459479627,TASK1
2026-05-26T09:23:45.592+00:00,1223,90362,119524.6123700872,112406.49818259456,145351.1366666718,104357.65735598294,117656.65473421272,103530.39694194758,172198.44278078587,155555.53502506437,TASK1
2026-05-26T09:23:45.592+00:00,1223,90363,119526.48991662145,112408.91217099573,145351.40488760528,104358.46201878334,117660.14160634775,103530.66516288104,172201.66143198745,155559.5583390663,TASK1
2026-05-26T09:23:45.592+00:00,1223,90364,119526.48991662145,112406.56523782792,145350.66728003827,104357.72441121632,117660.14160634775,103533.61559314914,172203.00253665476,155560.89944373362,TASK1
2026-05-26T09:23:45.592+00:00,1223,90365,119528.09924222223,112406.56523782792,145351.20372190519,104357.99263214978,117663.09203661584,103534.42025594953,172206.22118785634,155566.2638624029,TASK1
2026-05-26T09:23:45.592+00:00,1223,90366,119529.44034688955,112406.09585119436,145352.00838470558,104357.25502458274,117666.31068781741,103532.8779855821,172207.29407159018,155568.6778508041,TASK1
2026-05-26T09:23:45.592+00:00,1223,90367,119528.97096025599,112404.55358082695,145351.27077713856,104357.05385888265,117666.10952211732,103533.14620651558,172207.09290589008,155569.48251360448,TASK1
2026-05-26T09:23:45.592+00:00,1223,90368,119528.97096025599,112406.4311273612,145352.61188180587,104358.39496354997,117665.37191455028,103535.02375304983,172209.2386733578,155570.8236182718,TASK1
2026-05-26T09:23:45.592+00:00,1223,90369,119528.50157362242,112408.5768948289,145352.61188180587,104357.9255769164,117664.09786511633,103534.55436641625,172210.04333615818,155569.28134790438,TASK1
2026-05-26T09:23:45.592+00:00,1223,90370,119526.959303255,112407.03462446149,145351.06961143846,104354.77398094822,117663.36025754931,103532.47565418192,172207.42818205693,155564.5204263354,TASK1
2026-05-26T09:23:45.592+00:00,1223,90371,119525.14881195413,112406.8334587614,145350.86844573836,104354.03637338118,117664.96958315009,103531.46982568143,172206.42235355644,155561.63705130067,TASK1
2026-05-26T09:23:45.592+00:00,1223,90372,119525.41703288759,112407.63812156177,145350.86844573836,104354.57281524812,117665.77424595048,103533.0791512822,172205.95296692287,155560.89944373362,TASK1
2026-05-26T09:23:45.592+00:00,1223,90373,119525.95347475451,112407.43695586167,145350.3990591048,104354.10342861454,117666.31068781741,103534.42025594953,172207.56229252365,155561.70410653402,TASK1
2026-05-26T09:23:45.592+00:00,1223,90374,119525.95347475451,112407.70517679515,145350.9355009717,104354.10342861454,117666.84712968433,103537.90712808455,172208.63517625752,155561.70410653402,TASK1
2026-05-26T09:23:45.592+00:00,1223,90375,119527.29457942184,112407.23579016158,145352.27660563905,104354.63987048148,117669.52933901898,103536.6330786506,172211.85382745907,155564.9227577356,TASK1
2026-05-26T09:23:45.592+00:00,1223,90376,119526.02052998789,112408.04045296197,145350.46611433817,104355.1763123484,117669.79755995244,103536.90129958406,172212.390269326,155566.53208333638,TASK1
2026-05-26T09:23:45.592+00:00,1223,90377,119528.09924222223,112414.07542396491,145352.88010273932,104363.35705081905,117674.15615012123,103547.36191598915,172219.16284789596,155573.23760667298,TASK1
2026-05-26T09:23:45.592+00:00,1223,90378,119531.04967249032,112414.61186583183,145353.1483236728,104363.35705081905,117677.91124318971,103546.8925293556,172218.42524032894,155574.5787113403,TASK1
2026-05-26T09:23:45.592+00:00,1223,90379,119529.23918118945,112413.87425826481,145349.9967277046,104359.13257111699,117678.17946412318,103542.936270587,172212.05499315917,155569.54956883783,TASK1
2026-05-26T09:23:45.592+00:00,1223,90380,119529.77562305637,112411.79554603047,145348.1862364037,104356.78563794919,117675.83253095538,103540.85755835265,172207.83051345713,155566.12975193618,TASK1
2026-05-26T09:23:45.592+00:00,1223,90381,119531.38494865716,112407.03462446149,145346.37574510285,104352.82937918059,117673.75381872103,103538.24240425139,172207.09290589008,155565.39214436917,TASK1
2026-05-26T09:23:45.592+00:00,1223,90382,119531.38494865716,112407.03462446149,145346.6439660363,104352.09177161357,117675.89958618874,103537.77301761783,172208.97045242434,155568.0743537038,TASK1
2026-05-26T09:23:45.592+00:00,1223,90383,119531.92139052409,112406.56523782792,145346.91218696977,104350.28128031269,117676.97246992259,103537.0354100508,172206.35529832306,155565.4591996025,TASK1
2026-05-26T09:23:45.592+00:00,1223,90384,119531.72022482399,112404.48652559359,145345.10169566888,104348.47078901182,117675.69842048864,103534.95669781645,172202.93548142142,155562.5758245678,TASK1
2026-05-26T09:23:45.592+00:00,1223,90385,119531.25083819042,112405.0229674605,145346.4428003362,104349.27545181221,117677.03952515595,103537.90712808455,172204.27658608873,155563.9169292351,TASK1
2026-05-26T09:23:45.592+00:00,1223,90386,119531.78728005735,112406.6322930613,145347.2474631366,104351.42121927992,117678.38062982328,103543.5397676873,172208.56812102415,155566.33091763628,TASK1
2026-05-26T09:23:45.592+00:00,1223,90387,119533.93304752506,112408.24161866207,145348.32034687046,104353.56698674762,117679.45351355714,103542.5339391868,172211.7867722257,155568.74490603743,TASK1
2026-05-26T09:23:45.592+00:00,1223,90388,119535.27415219237,112407.77223202851,145349.3932306043,104354.10342861454,117679.25234785704,103539.91878508554,172211.31738559215,155569.54956883783,TASK1
2026-05-26T09:23:45.592+00:00,1223,90389,119534.80476555882,112406.49818259456,145348.92384397076,104352.82937918059,117680.05701065743,103540.45522695246,172211.85382745907,155570.6224525717,TASK1
2026-05-26T09:23:45.592+00:00,1223,90390,119536.68231209306,112402.54192382596,145349.46028583767,104350.75066694626,117682.20277812514,103539.1811775185,172212.12204839254,155571.963557239,TASK1
2026-05-26T09:23:45.592+00:00,1223,90391,119536.48114639297,112400.46321159163,145348.72267827066,104348.40373377845,117683.54388279245,103538.44356995149,172213.19493212638,155571.225949672,TASK1
2026-05-26T09:23:45.592+00:00,1223,90392,119537.0175882599,112402.0725371924,145348.72267827066,104349.47661751231,117684.34854559285,103538.44356995149,172215.07247866064,155571.225949672,TASK1
2026-05-26T09:23:45.592+00:00,1223,90393,119538.09047199375,112402.8771999928,145350.33200387142,104351.08594311308,117682.2698333585,103539.7846746188,172215.3406995941,155572.29883340583,TASK1
2026-05-26T09:23:45.592+00:00,1223,90394,119539.69979759453,112404.75474652705,145351.40488760528,104352.96348964733,117682.2698333585,103547.29486075578,172215.139533894,155572.83527527278,TASK1
2026-05-26T09:23:45.592+00:00,1223,90395,119540.50446039492,112406.90051399475,145349.86261723787,104354.57281524812,117681.53222579148,103547.83130262271,172215.67597576094,155571.29300490534,TASK1
2026-05-26T09:23:45.592+00:00,1223,90396,119539.49863189443,112405.35824362734,145348.85678873738,104352.76232394723,117681.33106009138,103545.21614852145,172214.67014726045,155570.55539733832,TASK1
2026-05-26T09:23:45.592+00:00,1223,90397,119538.22458246048,112404.88885699377,145349.66145153777,104351.75649544674,117681.12989439128,103543.67387815402,172214.67014726045,155569.8177897713,TASK1
2026-05-26T09:23:45.592+00:00,1223,90398,119541.04090226186,112406.90051399475,145349.86261723787,104353.09760011407,117684.6167665263,103544.21032002095,172218.02290892875,155572.3658886392,TASK1
2026-05-26T09:23:45.597+00:00,1223,90399,119542.38200692917,112407.43695586167,145349.86261723787,104354.70692571484,117686.49431306055,103547.16075028905,172220.4368973299,155574.51165610692,TASK1
2026-05-26T09:23:45.597+00:00,1223,90400,119542.65022786263,112407.70517679515,145349.3932306043,104355.51158851523,117685.48848456006,103549.0382968233,172222.31444386416,155574.04226947334,TASK1
2026-05-26T09:23:45.597+00:00,1223,90401,119541.64439936214,112408.778060529,145350.1978934047,104355.04220188168,117685.0190979265,103547.49602645588,172221.8450572306,155572.49999910593,TASK1
2026-05-26T09:23:45.597+00:00,1223,90402,119541.64439936214,112409.5827233294,145351.80721900548,104356.11508561553,117686.89664446075,103549.10535205666,172221.10744966357,155573.03644097288,TASK1
2026-05-26T09:23:45.597+00:00,1223,90403,119541.91262029561,112410.11916519632,145353.41654460627,104356.91974841592,117687.70130726114,103551.25111952437,172221.37567059704,155573.84110377324,TASK1
2026-05-26T09:23:45.597+00:00,1223,90404,119541.44323366205,112410.11916519632,145351.87427423886,104356.71858271582,117687.23192062757,103551.7875613913,172221.6438915305,155573.3717171397,TASK1
2026-05-26T09:23:45.597+00:00,1223,90405,119540.97384702848,112411.19204893017,145351.1366666718,104358.59612925007,117687.23192062757,103553.93332885901,172223.25321713128,155575.24926367393,TASK1
2026-05-26T09:23:45.597+00:00,1223,90406,119541.51028889541,112411.46026986363,145350.9355009717,104361.01011765124,117689.64590902875,103556.34731726018,172225.39898459899,155579.2725776759,TASK1
2026-05-26T09:23:45.597+00:00,1223,90407,119542.04673076233,112411.99671173056,145349.92967247125,104361.54655951817,117689.1765223952,103556.88375912711,172225.39898459899,155578.80319104233,TASK1
2026-05-26T09:23:45.597+00:00,1223,90408,119544.99716103043,112411.99671173056,145350.7343352716,104363.42410605241,117690.78584799597,103555.34148875969,172226.7400892663,155578.80319104233,TASK1
2026-05-26T09:23:45.597+00:00,1223,90409,119545.26538196391,112409.64977856276,145351.27077713856,104361.34539381808,117692.39517359676,103556.68259342702,172228.3494148671,155578.80319104233,TASK1
2026-05-26T09:23:45.597+00:00,1223,90410,119543.18666972956,112408.3757291288,145348.65562303728,104360.8760071845,117691.9257869632,103557.48725622741,172227.61180730007,155576.724478808,TASK1
2026-05-26T09:23:45.597+00:00,1223,90411,119543.45489066302,112407.63812156177,145349.1920649042,104361.6806699849,117694.33977536437,103557.75547716087,172229.4893538343,155577.79736254184,TASK1
2026-05-26T09:23:45.597+00:00,1223,90412,119544.79599533034,112405.8276302609,145351.06961143846,104360.94306241788,117695.41265909822,103555.67676492652,172228.75174626728,155577.59619684174,TASK1
2026-05-26T09:23:45.597+00:00,1223,90413,119544.59482963024,112405.09002269387,145347.91801547026,104361.21128335134,117693.60216779733,103555.94498585998,172226.9412549664,155576.85858927472,TASK1
2026-05-26T09:23:45.597+00:00,1223,90414,119544.12544299668,112405.6264645608,145346.91218696977,104360.74189671778,117692.32811836338,103556.48142772692,172225.9354264659,155575.58453984078,TASK1
2026-05-26T09:23:45.597+00:00,1223,90415,119543.92427729658,112406.96756922812,145347.71684977016,104361.01011765124,117692.59633929686,103557.28609052731,172225.1978188989,155574.31049040682,TASK1
2026-05-26T09:23:45.597+00:00,1223,90416,119543.92427729658,112408.84511576236,145348.789733504,104361.2783385847,117693.93744396417,103557.28609052731,172226.27070263276,155576.45625787452,TASK1
2026-05-26T09:23:45.597+00:00,1223,90417,119543.72311159648,112407.30284539495,145347.51568407007,104358.1267426165,117692.1269526633,103555.20737829297,172227.3435863666,155577.26092067492,TASK1
2026-05-26T09:23:45.597+00:00,1223,90418,119542.98550402946,112405.76057502754,145345.97341370265,104356.85269318255,117693.19983639715,103556.01204109336,172228.6846910339,155578.0655834753,TASK1
2026-05-26T09:23:45.597+00:00,1223,90419,119542.78433832937,112406.028795961,145345.77224800255,104357.9255769164,117694.80916199792,103557.8895876276,172231.0986794351,155580.21135094302,TASK1
2026-05-26T09:23:45.597+00:00,1223,90420,119541.77850982887,112405.8276302609,145346.57691080295,104357.72441121632,117693.53511256397,103558.69425042799,172233.2444469028,155582.08889747725,TASK1
2026-05-26T09:23:45.597+00:00,1223,90421,119540.50446039492,112403.4806970931,145345.57108230246,104356.45036178235,117691.7246212631,103557.95664286097,172233.0432812027,155580.01018524292,TASK1
2026-05-26T09:23:45.597+00:00,1223,90422,119539.49863189443,112403.279531393,145344.56525380196,104357.25502458274,117690.45057182915,103555.87793062662,172231.5010108353,155577.66325207512,TASK1
2026-05-26T09:23:45.597+00:00,1223,90423,119543.25372496292,112405.96174072762,145347.9850707036,104360.60778625104,117695.68088003168,103561.71173592945,172233.98205446982,155582.49122887745,TASK1
2026-05-26T09:23:45.597+00:00,1223,90424,119542.5161173959,112406.2299616611,145348.789733504,104360.8760071845,117694.6750515312,103565.46682899795,172232.4397841024,155584.3687754117,TASK1
2026-05-26T09:23:45.597+00:00,1223,90425,119540.43740516156,112403.0783656929,145345.36991660236,104357.99263214978,117692.59633929686,103563.11989583014,172229.55640906768,155584.63699634516,TASK1
2026-05-26T09:23:45.597+00:00,1223,90426,119539.69979759453,112401.80431625895,145344.0958671684,104356.18214084889,117691.85873172982,103561.0411835958,172229.0870224341,155587.05098474634,TASK1
2026-05-26T09:23:45.925+00:00,1224,90427,119540.50446039492,112403.14542092626,145343.8947014683,104358.05968738314,117692.66339453022,103561.84584639619,172229.35524336758,155588.9285312806,TASK1
2026-05-26T09:23:45.925+00:00,1224,90428,119540.77268132838,112406.09585119436,145344.96758520216,104358.59612925007,117695.07738293138,103562.38228826312,172229.62346430105,155590.26963594792,TASK1
2026-05-26T09:23:45.925+00:00,1224,90429,119541.84556506223,112407.16873492821,145347.11335266987,104359.66901298393,117696.95492946563,103564.25983479737,172232.57389456913,155592.95184528254,TASK1
2026-05-26T09:23:45.925+00:00,1224,90430,119543.72311159648,112406.96756922812,145348.72267827066,104360.74189671778,117697.75959226603,103565.60093946468,172234.1832201699,155592.95184528254,TASK1
2026-05-26T09:23:45.925+00:00,1224,90431,119544.79599533034,112406.76640352802,145347.9850707036,104359.19962635035,117697.75959226603,103565.39977376458,172232.90917073598,155588.99558651395,TASK1
2026-05-26T09:23:45.925+00:00,1224,90432,119543.79016682986,112405.76057502754,145346.4428003362,104358.46201878334,117696.21732189861,103565.19860806449,172231.36690036856,155586.3804324127,TASK1
2026-05-26T09:23:45.925+00:00,1224,90433,119544.32660869678,112402.34075812587,145345.97341370265,104357.45619028284,117696.75376376553,103563.92455863053,172231.90334223548,155584.83816204526,TASK1
2026-05-26T09:23:45.925+00:00,1224,90434,119545.13127149717,112401.60315055885,145345.97341370265,104359.06551588363,117696.28437713197,103563.92455863053,172232.70800503588,155584.10055447824,TASK1
2026-05-26T09:23:45.925+00:00,1224,90435,119545.39949243063,112402.6760342927,145348.11918117036,104362.01594615173,117696.82081899891,103564.72922143093,172236.1948771709,155586.24632194595,TASK1
2026-05-26T09:23:45.925+00:00,1224,90436,119545.39949243063,112402.6760342927,145345.2358061356,104358.86435018353,117695.54676956496,103561.0411835958,172231.97039746886,155582.29006317735,TASK1
2026-05-26T09:23:45.925+00:00,1224,90437,119546.74059709796,112401.40198485875,145342.8888729678,104355.44453328187,117695.07738293138,103555.20737829297,172228.2823596337,155581.55245561033,TASK1
2026-05-26T09:23:45.925+00:00,1224,90438,119543.85722206322,112399.85971449134,145341.3466026004,104353.36582104753,117694.33977536437,103557.8895876276,172229.35524336758,155586.11221147922,TASK1
2026-05-26T09:23:45.925+00:00,1224,90439,119541.24206796195,112400.93259822519,145340.87721596684,104356.58447224909,117695.94910096515,103565.66799469804,172234.4514411034,155591.4766301485,TASK1
2026-05-26T09:23:45.925+00:00,1224,90440,119544.72894009697,112403.61480755982,145342.21832063416,104358.99846065027,117698.63131029978,103565.66799469804,172239.5476388392,155595.76816508392,TASK1
2026-05-26T09:23:45.925+00:00,1224,90441,119545.26538196391,112401.53609532549,145345.16875090226,104359.26668158373,117701.04529870096,103565.9362156315,172243.8391737746,155597.64571161816,TASK1
2026-05-26T09:23:45.925+00:00,1224,90442,119545.53360289737,112399.99382495806,145347.8509602369,104358.5290740167,117702.9228452352,103566.47265749844,172244.91205750848,155597.44454591806,TASK1
2026-05-26T09:23:45.925+00:00,1224,90443,119546.33826569776,112399.5244383245,145347.8509602369,104357.79146644968,117702.9228452352,103564.66216619755,172242.56512434068,155594.0247290164,TASK1
2026-05-26T09:23:45.925+00:00,1224,90444,119546.33826569776,112399.3232726244,145345.77224800255,104356.51741701573,117702.9228452352,103564.93038713103,172241.02285397323,155590.60491211474,TASK1
2026-05-26T09:23:45.925+00:00,1224,90445,119546.13709999766,112399.3232726244,145345.30286136898,104356.51741701573,117702.7216795351,103565.46682899795,172241.55929584018,155588.25797894693,TASK1
2026-05-26T09:23:45.925+00:00,1224,90446,119547.20998373152,112399.1221069243,145346.91218696977,104357.05385888265,117701.17940916769,103564.72922143093,172243.7050633079,155589.06264174732,TASK1
2026-05-26T09:23:45.925+00:00,1224,90447,119547.74642559844,112398.9209412242,145345.36991660236,104356.04803038217,117699.10069693334,103563.1869510635,172243.97328424134,155589.06264174732,TASK1
2026-05-26T09:23:45.925+00:00,1224,90448,119548.81930933229,112398.45155459065,145344.90052996879,104355.84686468207,117699.90535973373,103563.9916138639,172242.96745574087,155589.06264174732,TASK1
2026-05-26T09:23:45.925+00:00,1224,90449,119550.9650768,112398.45155459065,145347.0462974365,104356.11508561553,117702.31934813492,103566.40560226508,172243.77211854124,155591.74485108195,TASK1
2026-05-26T09:23:45.925+00:00,1224,90450,119553.5131756679,112399.39032785776,145348.45445733718,104358.59612925007,117705.13566793628,103572.0382418678,172246.655493576,155595.09761275025,TASK1
2026-05-26T09:23:45.925+00:00,1224,90451,119551.1662425001,112399.65854879124,145346.10752416938,104358.86435018353,117703.86161850233,103573.11112560166,172246.655493576,155596.17049648412,TASK1
2026-05-26T09:23:45.925+00:00,1224,90452,119549.62397213269,112399.45738309114,145345.6381375358,104358.66318448343,117704.93450223618,103569.42308776654,172249.87414477754,155599.38914768567,TASK1
2026-05-26T09:23:45.925+00:00,1224,90453,119550.16041399962,112398.98799645758,145348.5885678039,104359.46784728383,117706.2756069035,103572.10529710118,172252.28813317872,155603.14424075416,TASK1
2026-05-26T09:23:45.925+00:00,1224,90454,119550.69685586654,112398.78683075748,145350.1978934047,104361.0771728846,117707.88493250428,103575.05572736927,172253.3610169126,155605.55822915534,TASK1
2026-05-26T09:23:45.925+00:00,1224,90455,119549.42280643259,112397.24456039006,145347.58273930344,104361.0771728846,117707.88493250428,103575.86039016966,172251.28230467823,155602.94307505406,TASK1
2026-05-26T09:23:45.925+00:00,1224,90456,119549.22164073249,112397.24456039006,145345.2358061356,104360.33956531758,117709.76247903853,103574.31811980225,172248.93537151042,155601.13258375318,TASK1
2026-05-26T09:23:45.925+00:00,1224,90457,119549.22164073249,112397.24456039006,145345.50402706908,104359.06551588363,117709.0248714715,103573.58051223522,172246.8566592761,155598.51742965193,TASK1
2026-05-26T09:23:45.925+00:00,1224,90458,119549.22164073249,112397.78100225699,145346.040468936,104359.06551588363,117709.29309240497,103571.77002093435,172246.655493576,155597.24338021796,TASK1
2026-05-26T09:23:45.925+00:00,1224,90459,119549.02047503239,112397.04339468996,145345.0346404355,104356.98680364928,117708.8237057714,103574.72045120245,172247.4601563764,155598.31626395183,TASK1
2026-05-26T09:23:45.925+00:00,1224,90460,119550.36157969972,112397.57983655689,145344.83347473544,104357.79146644968,117707.81787727092,103579.28020707132,172249.33770291062,155600.46203141953,TASK1
2026-05-26T09:23:45.925+00:00,1224,90461,119552.23912623395,112398.9209412242,145347.51568407007,104358.59612925007,117711.30474940594,103581.15775360557,172250.67880757793,155601.26669421993,TASK1
2026-05-26T09:23:45.925+00:00,1224,90462,119552.77556810089,112400.530266825,145348.05212593699,104358.86435018353,117712.64585407326,103581.6941954725,172251.7516913118,155599.18798198557,TASK1
2026-05-26T09:23:45.925+00:00,1224,90463,119552.77556810089,112401.06670869191,145347.0462974365,104358.86435018353,117711.64002557278,103581.96241640596,172251.5505256117,155598.18215348508,TASK1
2026-05-26T09:23:45.925+00:00,1224,90464,119552.30618146733,112401.60315055885,145344.96758520216,104358.86435018353,117711.64002557278,103583.83996294021,172251.08113897813,155595.29877845035,TASK1
2026-05-26T09:23:45.925+00:00,1224,90465,119551.83679483377,112400.86554299181,145346.040468936,104358.39496354997,117712.71290930663,103582.56591350626,172251.61758084505,155594.56117088333,TASK1
2026-05-26T09:23:45.925+00:00,1224,90466,119550.56274539982,112398.78683075748,145346.57691080295,104357.12091411602,117714.05401397395,103582.83413443972,172251.41641514495,155593.28712144936,TASK1
2026-05-26T09:23:45.925+00:00,1224,90467,119550.83096633328,112398.31744412391,145345.57108230246,104355.5786437486,117713.85284827385,103582.0965268727,172248.26481917678,155589.86730454772,TASK1
2026-05-26T09:23:45.925+00:00,1224,90468,119551.09918726674,112399.39032785776,145344.56525380196,104355.5786437486,117710.16481043873,103582.36474780616,172246.9907697428,155588.05681324683,TASK1
2026-05-26T09:23:45.925+00:00,1224,90469,119547.14292849814,112398.38449935729,145342.21832063416,104352.69526871387,117707.01321447053,103580.55425650527,172245.98494124232,155589.66613884762,TASK1
2026-05-26T09:23:45.925+00:00,1224,90470,119545.86887906419,112398.9209412242,145341.21249213367,104352.49410301377,117707.28143540399,103581.8953611726,172247.86248777658,155592.61656911572,TASK1
2026-05-26T09:23:45.925+00:00,1224,90471,119544.86305056371,112399.7256040246,145339.67022176625,104352.29293731367,117706.54382783697,103581.6941954725,172247.393101143,155591.34251968176,TASK1
2026-05-26T09:23:45.925+00:00,1224,90472,119544.39366393014,112399.25621739104,145339.20083513268,104351.55532974664,117708.95781623814,103579.07904137122,172247.66132207648,155590.8731330482,TASK1
2026-05-26T09:23:45.925+00:00,1224,90473,119543.65605636312,112398.51860982401,145338.73144849914,104351.82355068011,117710.29892090545,103579.07904137122,172247.92954300993,155590.6719673481,TASK1
2026-05-26T09:23:45.925+00:00,1224,90474,119543.18666972956,112399.05505169094,145338.73144849914,104351.08594311308,117710.83536277238,103582.2976925728,172247.72837730983,155590.6719673481,TASK1
2026-05-26T09:23:45.925+00:00,1224,90475,119542.717283096,112398.04922319045,145338.53028279904,104350.61655647952,117711.10358370584,103582.83413443972,172248.8012610437,155590.20258071454,TASK1
2026-05-26T09:23:45.925+00:00,1224,90476,119542.24789646243,112398.85388599084,145339.06672466596,104351.15299834646,117711.64002557278,103583.90701817357,172250.67880757793,155591.00724351493,TASK1
2026-05-26T09:23:45.925+00:00,1224,90477,119542.78433832937,112398.85388599084,145340.40782933327,104351.15299834646,117714.05401397395,103583.90701817357,172254.43390064643,155592.61656911572,TASK1
2026-05-26T09:23:45.925+00:00,1224,90478,119544.93010579707,112398.65272029075,145339.13377989933,104350.41539077942,117717.00444424205,103584.17523910703,172255.77500531374,155592.14718248215,TASK1
2026-05-26T09:23:45.925+00:00,1224,90479,119545.19832673053,112398.45155459065,145337.85973046537,104346.19091107737,117717.80910704244,103580.21898033845,172252.62340934554,155590.06847024782,TASK1
2026-05-26T09:23:45.925+00:00,1224,90480,119544.19249823006,112398.98799645758,145336.85390196487,104345.98974537727,117714.65751107424,103581.56008500577,172251.61758084505,155589.06264174732,TASK1
2026-05-26T09:23:45.925+00:00,1224,90481,119545.19832673053,112400.93259822519,145335.78101823103,104348.33667854508,117715.26100817454,103585.2481228409,172252.42224364544,155590.60491211474,TASK1
2026-05-26T09:23:45.925+00:00,1224,90482,119544.72894009697,112401.73726102558,145333.43408506323,104349.6777832124,117716.87033377531,103585.78456470782,172251.1481942115,155593.01890051592,TASK1
2026-05-26T09:23:45.925+00:00,1224,90483,119544.25955346342,112401.73726102558,145332.96469842966,104349.20839657883,117718.4796593761,103585.78456470782,172251.41641514495,155595.16466798363,TASK1
2026-05-26T09:23:45.925+00:00,1224,90484,119545.06421626381,112402.2737028925,145333.50114029658,104349.20839657883,117720.35720591035,103587.12566937513,172254.0986244796,155597.57865638478,TASK1
2026-05-26T09:23:45.925+00:00,1224,90485,119548.01464653191,112402.81014475944,145337.25623336507,104350.28128031269,117725.45340364616,103586.92450367504,172258.12193848155,155601.33374945328,TASK1
2026-05-26T09:23:45.925+00:00,1224,90486,119546.74059709796,112401.80431625895,145337.05506766497,104349.81189367913,117723.64291234527,103585.65045424108,172260.53592688273,155603.74773785446,TASK1
2026-05-26T09:23:45.925+00:00,1224,90487,119547.27703896488,112402.0725371924,145338.66439326576,104351.42121927992,117725.25223794606,103586.99155890841,172263.48635715083,155604.82062158833,TASK1
2026-05-26T09:23:45.925+00:00,1224,90488,119549.15458549913,112404.21830466011,145340.81016073347,104353.83520768108,117726.59334261337,103587.52800077533,172264.29101995123,155604.35123495475,TASK1
2026-05-26T09:23:45.925+00:00,1224,90489,119549.15458549913,112404.48652559359,145340.07255316645,104355.44453328187,117727.39800541376,103588.86910544266,172262.48052865034,155603.34540645426,TASK1
2026-05-26T09:23:45.925+00:00,1224,90490,119547.34409419824,112404.48652559359,145339.60316653288,104355.71275421533,117727.39800541376,103590.47843104343,172263.5534123842,155602.60779888724,TASK1
2026-05-26T09:23:45.925+00:00,1224,90491,119547.34409419824,112405.0229674605,145338.59733803238,104355.98097514879,117726.66039784673,103589.47260254294,172264.35807518457,155603.14424075416,TASK1
2026-05-26T09:23:45.925+00:00,1224,90492,119549.22164073249,112405.29118839397,145337.32328859845,104354.70692571484,117727.19683971367,103587.12566937513,172260.401816416,155601.06552851983,TASK1
2026-05-26T09:23:45.925+00:00,1224,90493,119549.75808259942,112406.90051399475,145336.58568103143,104354.97514664831,117725.11812747932,103592.49008804442,172257.78666231473,155599.52325815242,TASK1
2026-05-26T09:23:45.925+00:00,1224,90494,119550.83096633328,112408.778060529,145335.57985253094,104356.04803038217,117725.38634841278,103594.36763457867,172258.59132511512,155600.86436281973,TASK1
2026-05-26T09:23:45.925+00:00,1224,90495,119551.09918726674,112407.77223202851,145335.57985253094,104355.84686468207,117726.99567401357,103593.09358514471,172260.2006507159,155601.93724655357,TASK1
2026-05-26T09:23:45.925+00:00,1224,90496,119549.55691689932,112407.57106632841,145334.57402403044,104354.84103618158,117727.26389494703,103592.35597757768,172261.0053135163,155602.47368842052,TASK1
2026-05-26T09:23:45.925+00:00,1224,90497,119548.01464653191,112407.36990062831,145334.37285833035,104353.83520768108,117726.52628738001,103593.16064037808,172260.8041478162,155602.47368842052,TASK1
2026-05-26T09:23:45.925+00:00,1224,90498,119547.27703896488,112408.71100529563,145335.17752113074,104355.1763123484,117725.78867981298,103595.30640784578,172263.48635715083,155604.88767682167,TASK1
2026-05-26T09:23:45.925+00:00,1224,90499,119547.81348083181,112408.9792262291,145333.90347169677,104354.43870478138,117726.05690074645,103594.56880027876,172264.02279901775,155607.30166522285,TASK1
2026-05-26T09:23:45.925+00:00,1224,90500,119549.42280643259,112409.7838890295,145335.2445763641,104353.43287628089,117729.00733101455,103595.64168401262,172263.82163331765,155608.91099082364,TASK1
2026-05-26T09:23:45.925+00:00,1224,90501,119549.42280643259,112409.5827233294,145336.85390196487,104352.69526871387,117731.68954034918,103595.90990494608,172260.93825828293,155605.49117392197,TASK1
2026-05-26T09:23:45.925+00:00,1224,90502,119551.1662425001,112411.12499369681,145336.92095719825,104354.43870478138,117733.16475548323,103597.25100961339,172261.0053135163,155603.94890355456,TASK1
2026-05-26T09:23:45.925+00:00,1224,90503,119551.97090530049,112410.65560706325,145336.18334963123,104355.24336758177,117733.70119735016,103599.12855614764,172262.88286005054,155605.55822915534,TASK1
2026-05-26T09:23:45.925+00:00,1224,90504,119553.04378903435,112410.18622042968,145337.25623336507,104356.58447224909,117736.65162761827,103603.42009108306,172266.1015112521,155608.24043848997,TASK1
2026-05-26T09:23:45.925+00:00,1224,90505,119554.1166727682,112410.99088323007,145339.67022176625,104356.11508561553,117738.5291741525,103603.68831201653,172266.90617405248,155609.84976409076,TASK1
2026-05-26T09:23:45.925+00:00,1224,90506,119554.38489370167,112410.52149659651,145341.5477683005,104355.64569898197,117741.21138348714,103600.53671604833,172267.17439498595,155609.64859839066,TASK1
2026-05-26T09:23:45.925+00:00,1224,90507,119554.18372800158,112412.1308221973,145342.8888729678,104357.25502458274,117743.08893002139,103599.53088754784,172267.71083685287,155609.44743269056,TASK1
2026-05-26T09:23:45.925+00:00,1224,90508,119553.714341368,112412.1308221973,145342.15126540078,104357.52324551622,117743.08893002139,103604.8953062171,172267.97905778635,155608.978046057,TASK1
2026-05-26T09:23:45.925+00:00,1224,90509,119555.59188790225,112412.93548499768,145341.68187876724,104358.3279083166,117743.35715095485,103608.6503992856,172270.12482525405,155610.31915072433,TASK1
2026-05-26T09:23:45.925+00:00,1224,90510,119556.6647716361,112412.46609836412,145341.68187876724,104355.98097514879,117744.4300346887,103607.91279171857,172268.31433395317,155608.7768803569,TASK1
2026-05-26T09:23:45.925+00:00,1224,90511,119555.65894313563,112411.19204893017,145340.1396083998,104353.63404198099,117743.42420618823,103607.71162601848,172267.30850545267,155607.50283092295,TASK1
2026-05-26T09:23:45.925+00:00,1224,90512,119555.92716406909,112412.26493266402,145340.67605026675,104353.43287628089,117743.22304048813,103607.97984695194,172266.03445601874,155607.03344428938,TASK1
2026-05-26T09:23:45.925+00:00,1224,90513,119558.34115247025,112413.87425826481,145342.82181773445,104354.23753908128,117744.0277032885,103607.97984695194,172265.83329031864,155607.03344428938,TASK1
2026-05-26T09:23:45.925+00:00,1224,90514,119560.2186990045,112414.94714199867,145344.6993642687,104355.04220188168,117746.17347075623,103610.12561441965,172267.97905778635,155611.86142109174,TASK1
2026-05-26T09:23:45.925+00:00,1224,90515,119559.74931237094,112413.67309256471,145344.96758520216,104353.76815244772,117747.24635449008,103609.92444871955,172266.97322928585,155611.39203445817,TASK1
2026-05-26T09:23:45.925+00:00,1224,90516,119559.74931237094,112413.94131349817,145345.2358061356,104353.29876581416,117749.92856382471,103612.6066580542,172266.5038426523,155611.19086875807,TASK1
2026-05-26T09:23:45.925+00:00,1224,90517,119560.28575423786,112412.39904313076,145346.57691080295,104352.82937918059,117753.41543595975,103612.4054923541,172267.30850545267,155613.06841529233,TASK1
2026-05-26T09:23:45.925+00:00,1224,90518,119561.09041703826,112412.39904313076,145345.8393032359,104354.17048384792,117754.22009876012,103610.59500105321,172270.79537758772,155617.6281711612,TASK1
2026-05-26T09:23:45.925+00:00,1224,90519,119562.16330077211,112412.19787743066,145344.56525380196,104353.70109721436,117754.75654062706,103612.74076852092,172272.94114505543,155618.4328339616,TASK1
2026-05-26T09:23:45.925+00:00,1224,90520,119562.16330077211,112411.7284907971,145345.6381375358,104351.62238498002,117758.24341276208,103612.53960282082,172272.73997935533,155617.4270054611,TASK1
2026-05-26T09:23:45.925+00:00,1224,90521,119561.15747227163,112411.7284907971,145348.05212593699,104352.42704778041,117760.3891802298,103610.72911151995,172273.00820028878,155615.34829322677,TASK1
2026-05-26T09:23:45.925+00:00,1224,90522,119559.07876003729,112410.99088323007,145347.0462974365,104351.42121927992,117757.50580519506,103610.99733245341,172274.34930495612,155613.80602285935,TASK1
2026-05-26T09:23:45.925+00:00,1224,90523,119557.53648966986,112409.98505472958,145344.16292240177,104349.61072797903,117754.0859882934,103614.48420458844,172274.14813925602,155613.06841529233,TASK1
2026-05-26T09:23:45.925+00:00,1224,90524,119556.53066116938,112409.98505472958,145343.42531483475,104350.14716984596,117754.62243016032,103616.09353018922,172274.41636018947,155613.8730780927,TASK1
2026-05-26T09:23:45.925+00:00,1224,90525,119553.9155070681,112411.86260126383,145342.95592820118,104351.22005357982,117754.15304352676,103618.50751859038,172274.21519448937,155614.40951995965,TASK1
2026-05-26T09:23:45.925+00:00,1224,90526,119551.03213203338,112413.20370593116,145342.21832063416,104351.01888787972,117753.41543595975,103619.04396045732,172272.94114505543,155614.94596182657,TASK1
2026-05-26T09:23:45.925+00:00,1224,90527,119551.23329773347,112412.93548499768,145343.55942530147,104351.42121927992,117754.8906510938,103619.17807092406,172275.1539677565,155617.96344732805,TASK1
2026-05-26T09:23:45.925+00:00,1224,90528,119551.23329773347,112412.46609836412,145343.0900386679,104349.87894891249,117755.42709296072,103618.97690522396,172275.69040962344,155621.1820985296,TASK1
2026-05-26T09:23:45.925+00:00,1224,90529,119551.03213203338,112411.7284907971,145342.35243110088,104349.6777832124,117757.0364185615,103620.04978895781,172275.95863055688,155623.05964506385,TASK1
2026-05-26T09:23:45.925+00:00,1224,90530,119549.75808259942,112410.18622042968,145342.15126540078,104347.86729191152,117757.8410813619,103616.89819298961,172275.22102298986,155621.5173746964,TASK1
2026-05-26T09:23:45.925+00:00,1224,90531,119549.75808259942,112411.25910416353,145342.15126540078,104347.39790527796,117757.6399156618,103617.16641392307,172277.63501139104,155622.05381656336,TASK1
2026-05-26T09:23:45.925+00:00,1224,90532,119549.75808259942,112411.79554603047,145342.6877072677,104347.39790527796,117758.71279939565,103620.92150699157,172278.97611605836,155621.31620899632,TASK1
2026-05-26T09:23:45.925+00:00,1224,90533,119548.215812232,112411.79554603047,145344.02881193504,104347.39790527796,117757.4387499617,103622.53083259234,172280.31722072567,155621.31620899632,TASK1
2026-05-26T09:23:45.925+00:00,1224,90534,119545.86887906419,112411.32615939691,145343.291204368,104347.39790527796,117756.70114239467,103620.98856222493,172280.58544165915,155622.65731366366,TASK1
2026-05-26T09:23:45.925+00:00,1224,90535,119543.79016682986,112409.24744716256,145342.01715493406,104345.31919304362,117756.96936332813,103618.64162905712,172279.57961315865,155622.65731366366,TASK1
2026-05-26T09:23:45.925+00:00,1224,90536,119543.05255926283,112408.24161866207,145342.28537586753,104342.97225987581,117756.49997669457,103614.41714935507,172277.5009009243,155621.9197060966,TASK1
2026-05-26T09:23:45.925+00:00,1224,90537,119541.77850982887,112408.24161866207,145341.5477683005,104342.50287324225,117758.64574416228,103617.36757962317,172277.5009009243,155620.10921479575,TASK1
2026-05-26T09:23:45.925+00:00,1224,90538,119540.23623946146,112408.04045296197,145340.81016073347,104343.03931510917,117759.9868488296,103619.24512615742,172278.03734279124,155620.64565666267,TASK1
2026-05-26T09:23:45.925+00:00,1224,90539,119540.50446039492,112408.5768948289,145340.3407740999,104345.45330351035,117761.05973256346,103622.46377735898,172281.2559939928,155623.05964506385,TASK1
2026-05-26T09:23:45.925+00:00,1224,90540,119541.84556506223,112409.64977856276,145343.55942530147,104350.28128031269,117765.08304656541,103626.21887042747,172286.62041266207,155625.74185439848,TASK1
2026-05-26T09:23:45.925+00:00,1224,90541,119541.10795749522,112410.45444136315,145345.16875090226,104352.15882684693,117768.03347683352,103627.82819602825,172288.22973826286,155627.0829590658,TASK1
2026-05-26T09:23:45.925+00:00,1224,90542,119539.5656871278,112413.13665069778,145344.16292240177,104352.42704778041,117765.95476459917,103628.09641696172,172285.61458416158,155623.9313630976,TASK1
2026-05-26T09:23:45.925+00:00,1224,90543,119539.3645214277,112414.47775536511,145342.35243110088,104351.95766114684,117764.41249423176,103627.35880939469,172282.9994300603,155619.1704415286,TASK1
2026-05-26T09:23:45.925+00:00,1224,90544,119537.28580919336,112416.35530189936,145340.00549793307,104353.03054488069,117764.41249423176,103627.89525126162,172282.7982643602,155619.43866246208,TASK1
2026-05-26T09:23:45.925+00:00,1224,90545,119533.59777135824,112418.50106936706,145338.99966943258,104353.56698674762,117763.1384447978,103629.23635592894,172284.67581089446,155620.51154619595,TASK1
2026-05-26T09:23:45.925+00:00,1224,90546,119532.59194285775,112417.49524086657,145340.07255316645,104354.90809141494,117761.59617443038,103628.76696929538,172286.82157836217,155622.38909273018,TASK1
2026-05-26T09:23:45.925+00:00,1224,90547,119533.93304752506,112418.56812460042,145342.75476250108,104358.9314054169,117764.54660469848,103632.2538414304,172289.23556676335,155624.5348601979,TASK1
2026-05-26T09:23:45.925+00:00,1224,90548,119532.92721902457,112418.83634553388,145342.55359680098,104359.73606821729,117765.61948843233,103631.78445479684,172288.76618012978,155624.06547356432,TASK1
2026-05-26T09:23:45.925+00:00,1224,90549,119531.65316959062,112419.37278740082,145342.55359680098,104359.26668158373,117766.15593029927,103631.04684722982,172289.3026219967,155626.4794619655,TASK1
2026-05-26T09:23:45.925+00:00,1224,90550,119530.64734109014,112417.83051703339,145342.08421016744,104358.5290740167,117766.69237216619,103630.30923966279,172289.1014562966,155627.2841247659,TASK1
2026-05-26T09:23:45.925+00:00,1224,90551,119529.9097335231,112417.36113039983,145343.6935357682,104359.06551588363,117768.8381396339,103627.96230649498,172285.68163939496,155624.9371915981,TASK1
2026-05-26T09:23:46.346+00:00,1225,90552,119528.09924222223,112419.23867693408,145343.4923700681,104359.87017868402,117768.63697393381,103628.76696929538,172284.407589961,155622.59025843028,TASK1
2026-05-26T09:23:46.346+00:00,1225,90553,119525.75230905441,112419.50689786754,145338.99966943258,104359.40079205045,117763.3396104979,103631.18095769655,172280.71955212587,155619.43866246208,TASK1
2026-05-26T09:23:46.346+00:00,1225,90554,119526.15464045461,112421.45149963516,145340.20666363317,104360.40662055094,117763.67488666472,103632.11973096368,172278.1043980246,155618.8351653618,TASK1
2026-05-26T09:23:46.346+00:00,1225,90555,119525.14881195413,112420.71389206813,145341.5477683005,104359.40079205045,117764.47954946512,103631.65034433012,172278.1043980246,155618.09755779477,TASK1
2026-05-26T09:23:46.346+00:00,1225,90556,119523.6065415867,112418.63517983379,145340.5419398,104357.85852168304,117765.01599133204,103627.96230649498,172279.98194455885,155619.43866246208,TASK1
2026-05-26T09:23:46.346+00:00,1225,90557,119522.86893401969,112418.63517983379,145339.26789036606,104357.65735598294,117762.40083723077,103628.49874836192,172279.98194455885,155618.9692758285,TASK1
2026-05-26T09:23:46.346+00:00,1225,90558,119522.39954738613,112419.17162170072,145339.80433223298,104358.7302397168,117762.19967153067,103631.44917863002,172282.93237482695,155619.7739386289,TASK1
2026-05-26T09:23:46.346+00:00,1225,90559,119520.58905608524,112418.43401413369,145339.80433223298,104359.26668158373,117763.27255526453,103630.71157106299,172285.34636322813,155621.11504329625,TASK1
2026-05-26T09:23:46.346+00:00,1225,90560,119519.04678571783,112419.50689786754,145340.60899503337,104360.07134438412,117764.88188086532,103630.51040536289,172284.07231379417,155621.65148516317,TASK1
2026-05-26T09:23:46.346+00:00,1225,90561,119517.77273628388,112420.04333973448,145340.60899503337,104361.6806699849,117763.87605236482,103632.38795189714,172285.68163939496,155623.26081076395,TASK1
2026-05-26T09:23:46.346+00:00,1225,90562,119517.77273628388,112419.84217403438,145341.41365783376,104364.09465838608,117765.48537796561,103635.6066030987,172288.36384872958,155624.60191543127,TASK1
2026-05-26T09:23:46.346+00:00,1225,90563,119519.11384095119,112421.18327870169,145343.02298343455,104365.97220492031,117768.70402916717,103636.94770776603,172290.24139526385,155623.86430786425,TASK1
2026-05-26T09:23:46.346+00:00,1225,90564,119517.30334965032,112420.17745020121,145343.291204368,104363.08882988559,117769.50869196757,103635.13721646514,172289.77200863027,155620.1762700291,TASK1
2026-05-26T09:23:46.346+00:00,1225,90565,119514.95641648251,112418.63517983379,145343.0900386679,104362.0830013851,117769.77691290103,103633.32672516425,172289.77200863027,155619.70688339556,TASK1
2026-05-26T09:23:46.346+00:00,1225,90566,119512.34126238123,112416.55646759944,145340.20666363317,104359.73606821729,117769.30752626747,103631.51623386338,172288.76618012978,155619.975104329,TASK1
2026-05-26T09:23:46.346+00:00,1225,90567,119511.60365481421,112417.36113039983,145338.3961723323,104360.27251008422,117769.84396813439,103634.46666413148,172288.76618012978,155621.5844299298,TASK1
2026-05-26T09:23:46.346+00:00,1225,90568,119513.48120134846,112417.36113039983,145339.20083513268,104363.22294035231,117774.67194493674,103635.0031059984,172289.57084293017,155623.7301973975,TASK1
2026-05-26T09:23:46.346+00:00,1225,90569,119512.74359378143,112417.36113039983,145338.99966943258,104362.48533278529,117777.0859333379,103634.53371936484,172290.9119475975,155628.0217323329,TASK1
2026-05-26T09:23:46.346+00:00,1225,90570,119511.46954434748,112417.62935133331,145338.99966943258,104362.48533278529,117777.0859333379,103640.16635896759,172291.71661039788,155628.8263951333,TASK1
2026-05-26T09:23:46.346+00:00,1225,90571,119511.00015771392,112418.70223506716,145339.53611129953,104362.48533278529,117778.15881707176,103638.89230953364,172291.2472237643,155629.6310579337,TASK1
2026-05-26T09:23:46.346+00:00,1225,90572,119510.79899201382,112417.96462750013,145339.80433223298,104361.74772521826,117780.30458453948,103638.69114383354,172290.5096161973,155629.6310579337,TASK1
2026-05-26T09:23:46.346+00:00,1225,90573,119509.25672164641,112417.96462750013,145338.53028279904,104361.01011765124,117781.6456892068,103639.22758570046,172288.96734582988,155627.01590383242,TASK1
2026-05-26T09:23:46.346+00:00,1225,90574,119507.98267221246,112417.76346180003,145339.06672466596,104361.81478045163,117781.6456892068,103640.83691130124,172289.23556676335,155623.86430786425,TASK1
2026-05-26T09:23:46.346+00:00,1225,90575,119507.78150651236,112417.29407516647,145339.60316653288,104361.61361475154,117781.6456892068,103639.29464093383,172289.03440106325,155621.24915376297,TASK1
2026-05-26T09:23:46.346+00:00,1225,90576,119507.31211987878,112417.83051703339,145339.13377989933,104362.68649848539,117779.29875603899,103639.56286186729,172289.57084293017,155619.1704415286,TASK1
2026-05-26T09:23:46.346+00:00,1225,90577,119508.65322454611,112419.97628450111,145340.47488456665,104365.36870782003,117780.10341883938,103641.97685026846,172290.9119475975,155618.70105489506,TASK1
2026-05-26T09:23:46.346+00:00,1225,90578,119508.18383791255,112420.24450543457,145341.01132643357,104366.70981248734,117780.6398607063,103643.04973400231,172291.18016853096,155620.04215956238,TASK1
2026-05-26T09:23:46.346+00:00,1225,90579,119505.56868381127,112416.55646759944,145339.46905606615,104364.09465838608,117780.90808163976,103640.43457990105,172290.97900283086,155622.18792703009,TASK1
2026-05-26T09:23:46.346+00:00,1225,90580,119505.83690474475,112413.40487163125,145340.27371886655,104362.82060895213,117781.71274444016,103638.89230953364,172294.1976540324,155623.79725263087,TASK1
2026-05-26T09:23:46.346+00:00,1225,90581,119506.64156754513,112416.08708096588,145345.90635846928,104368.45324855486,117784.12673284134,103643.18384446905,172301.17139830248,155628.89345036668,TASK1
2026-05-26T09:23:46.346+00:00,1225,90582,119506.9097884786,112421.45149963516,145346.4428003362,104371.1354578895,117784.66317470826,103649.35292593871,172300.97023260238,155631.84388063478,TASK1
2026-05-26T09:23:46.346+00:00,1225,90583,119504.83107624426,112425.74303457058,145340.07255316645,104370.9342921894,117780.70691593966,103650.69403060603,172294.86820636608,155627.35117999927,TASK1
2026-05-26T09:23:46.346+00:00,1225,90584,119503.02058494337,112423.66432233623,145336.92095719825,104368.05091715466,117778.89642463879,103641.9097950351,172289.83906386365,155621.5173746964,TASK1
2026-05-26T09:23:46.346+00:00,1225,90585,119503.89230297712,112420.84800253487,145337.792675232,104367.1791991209,117781.2433578066,103644.99433576992,172291.1131132976,155622.99258983048,TASK1
2026-05-26T09:23:46.346+00:00,1225,90586,119501.8135907428,112419.84217403438,145336.25040486458,104365.36870782003,117780.2375293061,103649.28587070535,172291.1131132976,155623.5290316974,TASK1
2026-05-26T09:23:46.346+00:00,1225,90587,119501.07598317576,112420.11039496784,145336.04923916448,104366.70981248734,117780.2375293061,103652.77274284037,172294.33176449916,155624.60191543127,TASK1
2026-05-26T09:23:46.346+00:00,1225,90588,119501.07598317576,112420.11039496784,145338.73144849914,104368.58735902159,117781.0421921065,103654.65028937462,172297.5504157007,155627.01590383242,TASK1
2026-05-26T09:23:46.346+00:00,1225,90589,119502.14886690961,112421.71972056862,145338.99966943258,104369.39202182199,117780.8410264064,103654.91851030808,172297.81863663418,155627.2841247659,TASK1
2026-05-26T09:23:46.346+00:00,1225,90590,119501.94770120952,112422.79260430248,145340.07255316645,104369.66024275545,117781.37746827333,103655.72317310848,172297.08102906717,155627.0829590658,TASK1
2026-05-26T09:23:46.346+00:00,1225,90591,119502.21592214298,112422.79260430248,145341.95009970068,104371.5377892897,117783.25501480757,103657.33249870926,172299.49501746832,155628.96050560006,TASK1
2026-05-26T09:23:46.346+00:00,1225,90592,119502.75236400991,112422.79260430248,145341.95009970068,104371.80601022315,117783.52323574104,103654.98556554146,172299.49501746832,155627.95467709957,TASK1
2026-05-26T09:23:46.346+00:00,1225,90593,119503.02058494337,112422.05499673545,145339.60316653288,104370.5319607892,117783.7914566745,103653.7115161075,172297.68452616746,155627.95467709957,TASK1
2026-05-26T09:23:46.346+00:00,1225,90594,119504.09346867722,112421.58561010189,145340.1396083998,104369.52613228871,117785.13256134182,103654.51617890788,172297.48336046736,155630.6368864342,TASK1
2026-05-26T09:23:46.346+00:00,1225,90595,119505.43457334455,112423.19493570268,145342.28537586753,104371.40367882296,117786.7418869426,103658.80771384331,172299.3609070016,155634.3919795027,TASK1
2026-05-26T09:23:46.346+00:00,1225,90596,119504.69696577752,112421.92088626872,145342.08421016744,104368.78852472169,117787.27832880952,103654.85145507472,172297.5504157007,155632.04504633488,TASK1
2026-05-26T09:23:46.346+00:00,1225,90597,119503.69113727703,112419.57395310092,145340.81016073347,104365.36870782003,117787.07716310944,103650.89519630613,172295.47170346638,155630.50277596747,TASK1
2026-05-26T09:23:46.346+00:00,1225,90598,119503.22175064347,112419.37278740082,145340.3407740999,104365.16754211993,117787.88182590982,103650.15758873911,172295.73992439985,155632.91676436862,TASK1
2026-05-26T09:23:46.346+00:00,1225,90599,119502.75236400991,112420.98211300159,145339.06672466596,104368.11797238803,117788.41826777675,103652.57157714028,172300.03145933527,155637.20829930404,TASK1
2026-05-26T09:23:46.346+00:00,1225,90600,119503.02058494337,112422.59143860238,145338.86555896586,104369.72729798881,117786.3395555424,103652.57157714028,172301.37256400258,155638.01296210443,TASK1
2026-05-26T09:23:46.346+00:00,1225,90601,119501.74653550942,112422.12205196882,145336.25040486458,104368.45324855486,117784.26084330806,103656.86311207569,172300.903177369,155637.81179640433,TASK1
2026-05-26T09:23:46.346+00:00,1225,90602,119501.0089279424,112418.97045600062,145333.36702982985,104365.83809445359,117784.797285175,103654.78439984136,172299.62912793507,155635.19664230308,TASK1
2026-05-26T09:23:46.346+00:00,1225,90603,119500.8077622423,112417.96462750013,145334.17169263025,104364.8322659531,117784.05967760796,103653.24212947393,172301.5066744693,155634.99547660298,TASK1
2026-05-26T09:23:46.346+00:00,1225,90604,119500.07015467527,112419.57395310092,145335.2445763641,104365.90514968695,117783.32207004094,103656.46078067551,172304.4571047374,155634.99547660298,TASK1
2026-05-26T09:23:46.346+00:00,1225,90605,119499.33254710825,112418.29990366696,145335.043410664,104365.43576305339,117783.85851190786,103655.18673124156,172302.64661343652,155633.45320623557,TASK1
2026-05-26T09:23:46.346+00:00,1225,90606,119501.07598317576,112418.97045600062,145336.71979149815,104368.45324855486,117787.41243927626,103657.26544347589,172301.7078401694,155635.46486323653,TASK1
2026-05-26T09:23:46.346+00:00,1225,90607,119501.88064597615,112418.76929030052,145336.98801243163,104367.1791991209,117786.40661077577,103655.45495217502,172301.97606110288,155637.07418883732,TASK1
2026-05-26T09:23:46.346+00:00,1225,90608,119501.88064597615,112415.0812524654,145337.792675232,104365.90514968695,117785.93722414221,103653.10801900721,172301.5066744693,155635.5319184699,TASK1
2026-05-26T09:23:46.346+00:00,1225,90609,119501.14303840912,112414.61186583183,145338.59733803238,104366.9780334208,117787.546549743,103652.37041144018,172303.38422100357,155634.25786903597,TASK1
2026-05-26T09:23:46.346+00:00,1225,90610,119500.94187270902,112417.56229609993,145339.13377989933,104369.66024275545,117788.35121254339,103653.7115161075,172305.79820940472,155632.44737773508,TASK1
2026-05-26T09:23:46.346+00:00,1225,90611,119499.13138140815,112416.55646759944,145336.25040486458,104367.5815305211,117787.3453840429,103653.7115161075,172304.52415997078,155629.8322236338,TASK1
2026-05-26T09:23:46.346+00:00,1225,90612,119498.93021570805,112416.82468853291,145335.2445763641,104368.65441425495,117787.88182590982,103657.19838824253,172305.0606018377,155633.05087483537,TASK1
2026-05-26T09:23:46.346+00:00,1225,90613,119499.46665757497,112417.62935133331,145336.58568103143,104371.60484452306,117788.1500468433,103660.41703944409,172305.32882277117,155634.3919795027,TASK1
2026-05-26T09:23:46.346+00:00,1225,90614,119499.73487850845,112417.89757226677,145337.12212289835,104371.40367882296,117787.41243927626,103657.26544347589,172305.32882277117,155632.84970913528,TASK1
2026-05-26T09:23:46.346+00:00,1225,90615,119499.26549187489,112418.70223506716,145337.65856476527,104370.9342921894,117786.40661077577,103661.55697841132,172303.78655240376,155631.84388063478,TASK1
2026-05-26T09:23:46.346+00:00,1225,90616,119497.18677964054,112419.50689786754,145336.65273626478,104372.00717592325,117784.32789854144,103665.3120714798,172303.3171657702,155631.3744940012,TASK1
2026-05-26T09:23:46.346+00:00,1225,90617,119496.18095114005,112421.65266533526,145334.8422449639,104373.34828059057,117782.78562817401,103665.1109057797,172302.3113372697,155629.56400270032,TASK1
2026-05-26T09:23:46.346+00:00,1225,90618,119496.18095114005,112423.26199093604,145335.91512869776,104375.22582712481,117784.12673284134,103664.37329821268,172301.03728783576,155627.485290466,TASK1
2026-05-26T09:23:46.346+00:00,1225,90619,119493.83401797224,112423.5302118695,145336.45157056468,104377.10337365906,117784.93139564172,103665.71440288,172302.37839250307,155628.55817419986,TASK1
2026-05-26T09:23:46.346+00:00,1225,90620,119490.68242200404,112423.3290461694,145336.98801243163,104377.63981552598,117783.65734620776,103668.6648331481,172305.8652646381,155630.16749980062,TASK1
2026-05-26T09:23:46.346+00:00,1225,90621,119490.48125630394,112422.05499673545,145337.792675232,104377.90803645946,117785.80311367549,103670.27415874889,172306.401706505,155630.70394166757,TASK1
2026-05-26T09:23:46.346+00:00,1225,90622,119490.01186967039,112420.7809473015,145339.13377989933,104374.75644049126,117787.68066020972,103663.09924877873,172305.93231987147,155631.7768254014,TASK1
2026-05-26T09:23:46.346+00:00,1225,90623,119486.86027370219,112421.04916823497,145337.05506766497,104374.75644049126,117784.52906424153,103662.89808307863,172305.73115417137,155631.5756597013,TASK1
2026-05-26T09:23:46.346+00:00,1225,90624,119485.31800333477,112421.58561010189,145336.58568103143,104374.75644049126,117785.33372704191,103665.3120714798,172306.53581697174,155633.72142716902,TASK1
2026-05-26T09:23:46.346+00:00,1225,90625,119484.58039576774,112420.5797816014,145334.50696879707,104372.67772825691,117785.13256134182,103664.30624297932,172305.79820940472,155635.3307527698,TASK1
2026-05-26T09:23:46.346+00:00,1225,90626,119483.03812540033,112417.96462750013,145334.30580309697,104371.40367882296,117785.93722414221,103663.03219354537,172306.8710931386,155638.01296210443,TASK1
2026-05-26T09:23:46.673+00:00,1226,90627,119482.83695970023,112418.76929030052,145334.10463739687,104373.01300442374,117787.546549743,103664.64151914614,172309.0168606063,155641.231613306,TASK1
2026-05-26T09:23:46.673+00:00,1226,90628,119483.10518063369,112419.57395310092,145334.10463739687,104373.81766722412,117787.546549743,103664.64151914614,172309.0168606063,155638.34823827128,TASK1
2026-05-26T09:23:46.673+00:00,1226,90629,119483.10518063369,112420.11039496784,145334.90930019727,104372.81183872365,117788.88765441031,103660.14881851063,172309.28508153974,155638.61645920473,TASK1
2026-05-26T09:23:46.673+00:00,1226,90630,119482.36757306667,112418.29990366696,145334.90930019727,104369.66024275545,117788.1500468433,103660.68526037756,172309.8215234067,155642.6397732067,TASK1
2026-05-26T09:23:46.673+00:00,1226,90631,119481.36174456618,112417.69640656667,145335.91512869776,104371.00134742276,117790.36286954436,103666.45201044703,172313.174285075,155648.67474420962,TASK1
2026-05-26T09:23:46.673+00:00,1226,90632,119482.43462830003,112415.61769433232,145337.25623336507,104371.5377892897,117793.045078879,103666.45201044703,172313.7107269419,155650.82051167733,TASK1
2026-05-26T09:23:46.673+00:00,1226,90633,119482.43462830003,112415.61769433232,145337.25623336507,104371.5377892897,117793.84974167938,103667.25667324742,172313.5095612418,155652.16161634465,TASK1
2026-05-26T09:23:46.673+00:00,1226,90634,119480.35591606569,112417.49524086657,145336.51862579805,104373.41533582394,117792.03925037851,103670.47532444898,172313.77778217528,155652.42983727812,TASK1
2026-05-26T09:23:46.673+00:00,1226,90635,119479.88652943213,112419.64100833428,145336.78684673153,104376.6339870255,117792.8439131789,103672.35287098323,172314.85066590912,155652.22867157802,TASK1
2026-05-26T09:23:46.673+00:00,1226,90636,119478.88070093164,112420.98211300159,145336.04923916448,104377.17042889242,117791.30164281148,103672.15170528313,172313.3083955417,155649.88173841021,TASK1
2026-05-26T09:23:46.673+00:00,1226,90637,119479.14892186511,112423.1278804693,145336.58568103143,104379.31619636013,117790.83225617792,103674.83391461776,172312.03434610774,155647.26658430893,TASK1
2026-05-26T09:23:46.673+00:00,1226,90638,119480.22180559897,112423.39610140277,145336.85390196487,104379.5844172936,117790.63109047782,103676.44324021855,172309.68741293994,155643.31032554034,TASK1
2026-05-26T09:23:46.673+00:00,1226,90639,119479.21597709847,112424.73720607009,145337.12212289835,104383.87595222902,117791.43575327822,103679.39367048665,172313.44250600843,155644.65143020768,TASK1
2026-05-26T09:23:46.673+00:00,1226,90640,119480.82530269926,112425.27364793702,145339.80433223298,104386.55816156366,117793.84974167938,103681.2712170209,172317.19759907693,155645.992534875,TASK1
2026-05-26T09:23:46.673+00:00,1226,90641,119481.36174456618,112422.65849383574,145337.1891781317,104381.79723999467,117792.8439131789,103677.85140011924,172312.1684565745,155639.8905086387,TASK1
2026-05-26T09:23:46.673+00:00,1226,90642,119480.35591606569,112421.11622346833,145332.96469842966,104377.57276029262,117791.83808467841,103673.62692041718,172306.8710931386,155632.983819602,TASK1
2026-05-26T09:23:46.673+00:00,1226,90643,119478.54542476482,112418.23284843359,145330.61776526185,104372.81183872365,117788.41826777675,103669.67066164859,172302.64661343652,155629.0275608334,TASK1
2026-05-26T09:23:46.673+00:00,1226,90644,119475.12560786316,112416.95879899964,145327.19794836018,104370.19668462237,117786.3395555424,103668.6648331481,172297.61747093408,155624.5348601979,TASK1
2026-05-26T09:23:46.673+00:00,1226,90645,119471.43757002802,112417.22701993311,145324.58279425892,104371.5377892897,117785.60194797539,103670.54237968235,172297.1480843005,155622.18792703009,TASK1
2026-05-26T09:23:46.673+00:00,1226,90646,119468.5541949933,112415.68474956568,145322.77230295804,104371.3366235896,117785.40078227529,103671.6152634162,172296.14225580002,155622.18792703009,TASK1
2026-05-26T09:23:46.673+00:00,1226,90647,119465.93904089202,112414.41070013173,145321.49825352407,104370.3307950891,117784.3949537748,103672.4199262166,172294.86820636608,155622.99258983048,TASK1
2026-05-26T09:23:46.673+00:00,1226,90648,119466.20726182549,112413.40487163125,145322.8393581914,104369.32496658861,117785.46783750865,103672.2187605165,172296.74575290031,155625.94302009858,TASK1
2026-05-26T09:23:46.673+00:00,1226,90649,119466.00609612539,112408.3757291288,145323.37580005833,104366.44159155388,117788.1500468433,103667.4578389475,172299.69618316842,155629.96633410052,TASK1
2026-05-26T09:23:46.673+00:00,1226,90650,119465.26848855836,112407.63812156177,145324.44868379217,104366.44159155388,117791.1004771114,103667.99428081444,172302.64661343652,155632.64854343518,TASK1
2026-05-26T09:23:46.673+00:00,1226,90651,119465.26848855836,112408.9792262291,145323.97929715863,104366.70981248734,117791.63691897831,103669.33538548175,172303.98771810383,155632.44737773508,TASK1
2026-05-26T09:23:46.673+00:00,1226,90652,119464.53088099134,112407.97339772861,145323.2416895916,104365.43576305339,117790.63109047782,103666.98845231395,172303.2501105368,155631.1733283011,TASK1
2026-05-26T09:23:46.673+00:00,1226,90653,119464.7991019248,112407.97339772861,145322.77230295804,104366.50864678725,117791.43575327822,103668.59777791474,172303.04894483672,155630.972162601,TASK1
2026-05-26T09:23:46.673+00:00,1226,90654,119466.14020659211,112407.97339772861,145325.45451229266,104368.3861933215,117793.84974167938,103668.12839128118,172304.39004950403,155630.50277596747,TASK1
2026-05-26T09:23:46.673+00:00,1226,90655,119464.5979362247,112406.4311273612,145327.06383789345,104364.69815548636,117794.65440447978,103666.04967904683,172302.04311633622,155624.9371915981,TASK1
2026-05-26T09:23:46.673+00:00,1226,90656,119462.2510030569,112406.2299616611,145326.05800939296,104363.42410605241,117791.50280851158,103668.19544651454,172299.42796223497,155621.5173746964,TASK1
2026-05-26T09:23:46.673+00:00,1226,90657,119460.44051175601,112406.028795961,145324.24751809207,104362.68649848539,117787.81477067646,103668.463667448,172298.153912801,155618.36577872824,TASK1
2026-05-26T09:23:46.673+00:00,1226,90658,119459.43468325553,112407.63812156177,145327.93555592722,104364.16171361944,117791.30164281148,103669.80477211533,172301.43961923593,155620.44449096257,TASK1
2026-05-26T09:23:46.673+00:00,1226,90659,119457.8924128881,112407.63812156177,145328.20377686067,104363.69232698588,117792.6427474788,103670.87765584918,172305.4629332379,155625.2724677649,TASK1
2026-05-26T09:23:46.673+00:00,1226,90660,119456.08192158723,112406.36407212782,145326.92972742673,104362.95471941885,117793.17918934573,103672.75520238341,172308.68158443947,155628.49111896649,TASK1
2026-05-26T09:23:46.673+00:00,1226,90661,119455.88075588713,112405.35824362734,145327.19794836018,104362.48533278529,117795.86139868037,103669.60360641523,172312.7048984414,155632.7826539019,TASK1
2026-05-26T09:23:46.673+00:00,1226,90662,119456.95363962099,112405.15707792724,145328.27083209404,104361.4795042848,117799.08004988193,103668.32955698128,172313.5095612418,155633.85553763577,TASK1
2026-05-26T09:23:46.673+00:00,1226,90663,119458.56296522176,112405.15707792724,145329.34371582788,104361.74772521826,117799.88471268232,103670.20710351551,172313.04017460824,155634.1237585692,TASK1
2026-05-26T09:23:46.673+00:00,1226,90664,119457.82535765474,112405.69351979416,145329.14255012778,104362.28416708519,117796.46489578066,103671.54820818284,172312.03434610774,155633.11793006872,TASK1
2026-05-26T09:23:46.673+00:00,1226,90665,119455.47842448694,112403.61480755982,145329.67899199473,104362.28416708519,117794.92262541325,103668.6648331481,172308.6145292061,155631.84388063478,TASK1
2026-05-26T09:23:46.673+00:00,1226,90666,119454.20437505298,112404.41947036021,145329.20960536116,104364.69815548636,117795.19084634671,103669.73771688195,172308.413363506,155634.25786903597,TASK1
2026-05-26T09:23:46.673+00:00,1226,90667,119454.47259598644,112405.2241331606,145329.20960536116,104364.96637641983,117795.72728821363,103669.2683302484,172308.94980537292,155636.1354155702,TASK1
2026-05-26T09:23:46.673+00:00,1226,90668,119453.46676748595,112405.2241331606,145329.00843966106,104363.69232698588,117794.72145971315,103673.29164425035,172308.48041873937,155636.40363650367,TASK1
2026-05-26T09:23:46.673+00:00,1226,90669,119454.00320935289,112407.36990062831,145327.73439022712,104365.30165258666,117796.86722718086,103677.3149582523,172309.5533024732,155635.9342498701,TASK1
2026-05-26T09:23:46.673+00:00,1226,90670,119455.3443140202,112408.9792262291,145330.41659956175,104366.10631538705,117800.62232024934,103678.92428385309,172309.5533024732,155632.51443296843,TASK1
2026-05-26T09:23:46.673+00:00,1226,90671,119455.3443140202,112410.05210996296,145331.48948329562,104365.90514968695,117799.88471268232,103677.9184553526,172308.8156949062,155630.70394166757,TASK1
2026-05-26T09:23:46.673+00:00,1226,90672,119454.87492738664,112409.31450239592,145331.75770422906,104366.17337062041,117798.34244231491,103680.60066468723,172309.08391583967,155627.01590383242,TASK1
2026-05-26T09:23:46.673+00:00,1226,90673,119453.86909888615,112407.23579016158,145332.29414609598,104364.36287931954,117799.68354698223,103679.59483618675,172307.54164547223,155625.20541253156,TASK1
2026-05-26T09:23:46.673+00:00,1226,90674,119454.94198262,112404.35241512685,145332.56236702946,104362.01594615173,117803.43864005072,103675.90679835161,172308.34630827262,155626.81473813232,TASK1
2026-05-26T09:23:46.673+00:00,1226,90675,119454.7408169199,112404.15124942675,145332.0929803959,104359.13257111699,117802.70103248369,103671.95053958303,172308.14514257252,155626.81473813232,TASK1
2026-05-26T09:23:46.673+00:00,1226,90676,119452.12566281864,112403.6818627932,145330.28248909503,104357.05385888265,117798.47655278163,103671.212932016,172306.6028722051,155625.2724677649,TASK1
2026-05-26T09:23:46.673+00:00,1226,90677,119450.58339245123,112402.13959242577,145329.27666059454,104354.70692571484,117800.08587838242,103669.40244071513,172307.13931407203,155627.15001429917,TASK1
2026-05-26T09:23:46.673+00:00,1226,90678,119450.11400581767,112402.6760342927,145330.34954432838,104354.70692571484,117801.42698304974,103670.74354538244,172308.74863967282,155629.8322236338,TASK1
2026-05-26T09:23:46.673+00:00,1226,90679,119449.6446191841,112402.94425522616,145329.61193676136,104355.24336758177,117801.69520398321,103671.8164291163,172308.54747397272,155630.90510736767,TASK1
2026-05-26T09:23:46.673+00:00,1226,90680,119447.83412788322,112401.67020579221,145326.46034079316,104354.23753908128,117800.42115454924,103670.00593781541,172307.0052036053,155629.6310579337,TASK1
2026-05-26T09:23:46.673+00:00,1226,90681,119447.36474124966,112402.4748685926,145324.91807042575,104355.5786437486,117799.95176791569,103669.53655118185,172304.92649137098,155627.8205666328,TASK1
2026-05-26T09:23:46.673+00:00,1226,90682,119446.62713368263,112401.73726102558,145323.91224192525,104355.3774780485,117800.21998884916,103666.38495521365,172304.4571047374,155627.35117999927,TASK1
2026-05-26T09:23:46.673+00:00,1226,90683,119444.81664238176,112400.46321159163,145322.63819249131,104354.63987048148,117801.29287258301,103670.14004828215,172304.99354660432,155626.61357243222,TASK1
2026-05-26T09:23:46.673+00:00,1226,90684,119442.73793014741,112399.99382495806,145322.63819249131,104354.90809141494,117799.21416034867,103672.28581574986,172305.52998847127,155626.8817933657,TASK1
2026-05-26T09:23:46.673+00:00,1226,90685,119441.46388071346,112399.5244383245,145322.43702679122,104355.71275421533,117798.20833184817,103673.62692041718,172303.7194971704,155626.14418579868,TASK1
2026-05-26T09:23:46.673+00:00,1226,90686,119440.18983127951,112399.79265925796,145322.23586109112,104355.98097514879,117798.47655278163,103673.62692041718,172301.9090058695,155625.94302009858,TASK1
2026-05-26T09:23:46.673+00:00,1226,90687,119439.18400277902,112398.78683075748,145320.6935907237,104355.98097514879,117798.74477371511,103670.20710351551,172304.59121520413,155629.16167130016,TASK1
2026-05-26T09:23:46.673+00:00,1226,90688,119437.37351147813,112398.78683075748,145318.07843662243,104355.98097514879,117797.73894521462,103669.73771688195,172305.12765707108,155629.96633410052,TASK1
2026-05-26T09:23:46.673+00:00,1226,90689,119438.0440638118,112402.4748685926,145320.62653549033,104358.46201878334,117803.03630865052,103673.69397565055,172308.07808733918,155635.80013940338,TASK1
2026-05-26T09:23:46.673+00:00,1226,90690,119435.96535157746,112401.46904009211,145319.62070698984,104358.99846065027,117803.30452958398,103673.22458901699,172311.29673854072,155638.482348738,TASK1
2026-05-26T09:23:46.673+00:00,1226,90691,119434.95952307696,112401.73726102558,145317.5419947555,104358.99846065027,117802.03048015003,103673.49280995045,172310.82735190718,155636.9400783706,TASK1
2026-05-26T09:23:46.673+00:00,1226,90692,119435.76418587736,112402.00548195904,145316.80438718846,104360.60778625104,117801.82931444993,103672.75520238341,172310.3579652736,155636.9400783706,TASK1
2026-05-26T09:23:46.673+00:00,1226,90693,119438.71461614546,112401.53609532549,145320.55948025695,104362.21711185183,117803.70686098418,103671.212932016,172312.23551180784,155638.81762490483,TASK1
2026-05-26T09:23:46.673+00:00,1226,90694,119438.71461614546,112401.53609532549,145323.77813145853,104363.8264374526,117805.58440751843,103672.82225761679,172317.0634886102,155642.8409389068,TASK1
2026-05-26T09:23:46.673+00:00,1226,90695,119437.4405667115,112401.80431625895,145327.26500359355,104369.99551892227,117807.46195405268,103678.18667628606,172326.45122128143,155651.42400877763,TASK1
2026-05-26T09:23:46.673+00:00,1226,90696,119442.26854351386,112404.48652559359,145327.53322452703,104371.60484452306,117809.60772152038,103679.25956001991,172327.25588408182,155652.76511344494,TASK1
2026-05-26T09:23:46.673+00:00,1226,90697,119442.53676444732,112405.0229674605,145323.30874482496,104367.11214388754,117807.52900928604,103674.7668593844,172316.59410197663,155646.3948662752,TASK1
2026-05-26T09:23:46.673+00:00,1226,90698,119439.11694754566,112404.82180176041,145318.81604418944,104364.2287688528,117805.45029705169,103679.32661525327,172311.29673854072,155642.70682844004,TASK1
2026-05-26T09:23:46.673+00:00,1226,90699,119439.11694754566,112404.62063606031,145320.15714885676,104369.05674565515,117810.81471572098,103691.66477819261,172319.0751456112,155652.36278204474,TASK1
2026-05-26T09:23:46.673+00:00,1226,90700,119440.9944940799,112404.62063606031,145323.37580005833,104372.00717592325,117816.4473553237,103695.15165032764,172325.78066894776,155660.94585191557,TASK1
2026-05-26T09:23:46.673+00:00,1226,90701,119442.06737781376,112402.81014475944,145324.18046285873,104371.00134742276,117819.66600652527,103694.41404276062,172327.1217736151,155663.0916193833,TASK1
2026-05-26T09:23:46.673+00:00,1226,90702,119441.59799118018,112403.0783656929,145325.78978845951,104373.95177769086,117823.42109959376,103698.1691358291,172329.80398294973,155666.84671245178,TASK1
2026-05-26T09:23:46.673+00:00,1226,90703,119440.86038361317,112403.0783656929,145327.39911406027,104378.51153355975,117826.90797172878,103699.51024049643,172331.94975041744,155670.87002645375,TASK1
2026-05-26T09:23:46.673+00:00,1226,90704,119440.39099697961,112403.34658662636,145329.81310246146,104379.85263822706,117830.39484386382,103700.58312423028,172334.63195975206,155673.28401485493,TASK1
2026-05-26T09:23:46.673+00:00,1226,90705,119440.18983127951,112404.68769129367,145330.61776526185,104381.73018476131,117828.8525734964,103704.8746591657,172339.99637842135,155678.91665445766,TASK1
2026-05-26T09:23:46.673+00:00,1226,90706,119442.33559874722,112405.2241331606,145332.22709086264,104384.68061502941,117829.92545723026,103708.36153130072,172345.09257615716,155682.67174752615,TASK1
2026-05-26T09:23:46.673+00:00,1226,90707,119445.82247088224,112407.90634249525,145336.51862579805,104387.36282436404,117836.09453869992,103710.23907783497,172349.65233202605,155686.6950615281,TASK1
2026-05-26T09:23:46.673+00:00,1226,90708,119444.28020051483,112406.6322930613,145336.04923916448,104386.08877493009,117838.50852710109,103710.03791213487,172350.18877389297,155687.76794526196,TASK1
2026-05-26T09:23:46.673+00:00,1226,90709,119443.27437201433,112405.6264645608,145334.77518973054,104385.88760922999,117838.03914046753,103710.84257493526,172348.914724459,155687.03033769495,TASK1
2026-05-26T09:23:46.673+00:00,1226,90710,119445.21897378194,112407.77223202851,145337.92678569874,104388.636873798,117840.92251550227,103714.93294417058,172349.65233202605,155689.10904992928,TASK1
2026-05-26T09:23:46.673+00:00,1226,90711,119446.02363658234,112406.49818259456,145340.3407740999,104387.36282436404,117844.14116670383,103713.39067380317,172350.18877389297,155688.37144236226,TASK1
2026-05-26T09:23:46.673+00:00,1226,90712,119445.01780808186,112405.2241331606,145339.87138746635,104385.55233306317,117843.67178007028,103711.84840343575,172349.45116632595,155685.21984639406,TASK1
2026-05-26T09:23:46.673+00:00,1226,90713,119444.01197958137,112404.75474652705,145341.21249213367,104386.62521679702,117843.47061437018,103715.33527557077,172350.79227099326,155685.01868069396,TASK1
2026-05-26T09:23:46.673+00:00,1226,90714,119444.81664238176,112403.4806970931,145340.7431055001,104386.62521679702,117844.27527717056,103716.40815930463,172353.20625939444,155685.55512256088,TASK1
2026-05-26T09:23:46.673+00:00,1226,90715,119444.81664238176,112402.74308952606,145339.46905606615,104387.42987959742,117844.81171903749,103716.40815930463,172355.08380592868,155685.55512256088,TASK1
2026-05-26T09:23:46.673+00:00,1226,90716,119445.35308424868,112404.08419419339,145339.7372769996,104388.77098426473,117846.9574865052,103715.93877267107,172359.3753408641,155687.96911096206,TASK1
2026-05-26T09:23:46.673+00:00,1226,90717,119445.88952611561,112405.4252988607,145342.15126540078,104389.30742613167,117849.37147490637,103715.46938603751,172362.59399206567,155691.72420403056,TASK1
2026-05-26T09:23:46.673+00:00,1226,90718,119446.15774704907,112404.95591222715,145342.41948633426,104390.11208893204,117850.98080050715,103721.10202564026,172363.93509673298,155694.9428552321,TASK1
2026-05-26T09:23:46.673+00:00,1226,90719,119445.68836041552,112405.2241331606,145342.95592820118,104390.64853079898,117851.24902144061,103722.97957217449,172367.95841073492,155698.42972736713,TASK1
2026-05-26T09:23:46.673+00:00,1226,90720,119443.07320631423,112404.75474652705,145341.41365783376,104389.64270229849,117847.82920453895,103721.97374367401,172369.5677363357,155699.77083203447,TASK1
2026-05-26T09:23:46.673+00:00,1226,90721,119441.53093594682,112403.4806970931,145338.53028279904,104390.17914416542,117848.09742547241,103722.7784064744,172372.24994567037,155703.52592510293,TASK1
2026-05-26T09:23:46.673+00:00,1226,90722,119440.52510744633,112403.74891802655,145337.25623336507,104392.59313256659,117848.09742547241,103724.65595300864,172373.05460847073,155705.67169257067,TASK1
2026-05-26T09:23:46.673+00:00,1226,90723,119441.06154931326,112402.74308952606,145338.59733803238,104394.47067910084,117846.82337603846,103726.53349954289,172372.04877997027,155705.67169257067,TASK1
2026-05-26T09:23:46.673+00:00,1226,90724,119441.86621211366,112401.73726102558,145339.13377989933,104394.7389000343,117847.3598179054,103726.33233384279,172372.5852218372,155705.67169257067,TASK1
2026-05-26T09:23:46.673+00:00,1226,90725,119440.05572081277,112400.99965345855,145341.81598923396,104395.27534190123,117851.65135284081,103726.13116814269,172373.65810557103,155705.67169257067,TASK1
2026-05-26T09:23:46.673+00:00,1226,90726,119442.73793014741,112399.7256040246,145345.8393032359,104396.61644656854,117854.60178310891,103727.74049374348,172373.18871893748,155704.3976431367,TASK1
2026-05-26T09:23:47.071+00:00,1227,90727,119445.15191854858,112398.18333365719,145347.4486288367,104397.95755123586,117854.13239647535,103728.2769356104,172371.64644857007,155702.8553727693,TASK1
2026-05-26T09:23:47.071+00:00,1227,90728,119443.60964818117,112396.3728423563,145345.90635846928,104397.4881646023,117853.93123077526,103721.37024657372,172370.64062006958,155702.8553727693,TASK1
2026-05-26T09:23:47.071+00:00,1227,90729,119443.87786911463,112396.1716766562,145345.16875090226,104396.4823361018,117854.73589357565,103724.05245590836,172368.29368690177,155701.31310240188,TASK1
2026-05-26T09:23:47.071+00:00,1227,90730,119445.21897378194,112396.9763394566,145346.77807650305,104397.82344076913,117858.49098664414,103728.61221177723,172369.90301250253,155702.6542070692,TASK1
2026-05-26T09:23:47.071+00:00,1227,90731,119443.94492434799,112394.62940628879,145346.30868986947,104397.0858332021,117857.75337907711,103727.33816234328,172367.0196374678,155699.502611101,TASK1
2026-05-26T09:23:47.071+00:00,1227,90732,119442.40265398058,112393.35535685484,145343.96175670167,104395.81178376815,117857.28399244355,103727.33816234328,172364.6727043,155697.1556779332,TASK1
2026-05-26T09:23:47.071+00:00,1227,90733,119441.66504641356,112392.61774928782,145343.76059100157,104395.34239713459,117857.28399244355,103726.60055477626,172362.59399206567,155694.80874476538,TASK1
2026-05-26T09:23:47.071+00:00,1227,90734,119440.92743884653,112390.27081612,145344.02881193504,104394.06834770064,117855.74172207614,103725.86294720923,172361.05172169826,155693.8029162649,TASK1
2026-05-26T09:23:47.071+00:00,1227,90735,119441.12860454663,112390.33787135337,145345.2358061356,104396.21411516835,117859.09448374443,103729.41687457763,172363.39865486606,155694.47346859856,TASK1
2026-05-26T09:23:47.071+00:00,1227,90736,119440.39099697961,112389.86848471982,145345.0346404355,104397.55521983566,117857.82043431047,103729.41687457763,172363.93509673298,155693.7358610315,TASK1
2026-05-26T09:23:47.071+00:00,1227,90737,119438.0440638118,112387.25333061854,145344.56525380196,104397.35405413558,117856.27816394306,103727.06994140982,172365.00798046682,155692.73003253102,TASK1
2026-05-26T09:23:47.071+00:00,1227,90738,119437.03823531131,112385.17461838419,145345.36991660236,104397.15288843548,117858.69215234423,103724.99122917547,172366.0808642007,155692.73003253102,TASK1
2026-05-26T09:23:47.071+00:00,1227,90739,119436.03240681082,112385.17461838419,145347.51568407007,104398.76221403625,117861.64258261233,103727.13699664318,172367.15374793456,155692.73003253102,TASK1
2026-05-26T09:23:47.071+00:00,1227,90740,119435.02657831032,112385.44283931766,145348.85678873738,104400.6397605705,117862.17902447926,103726.66761000962,172367.69018980148,155690.11487842977,TASK1
2026-05-26T09:23:47.071+00:00,1227,90741,119433.75252887637,112385.44283931766,145349.92967247125,104401.4444233709,117862.98368727966,103728.00871467694,172367.69018980148,155689.6454917962,TASK1
2026-05-26T09:23:47.071+00:00,1227,90742,119433.28314224281,112384.97345268409,145353.1483236728,104404.12663270552,117866.20233848122,103733.90957521314,172371.1770619365,155691.7912592639,TASK1
2026-05-26T09:23:47.071+00:00,1227,90743,119433.28314224281,112383.69940325014,145351.60605330538,104404.12663270552,117866.20233848122,103734.982458947,172372.7863875373,155693.13236393122,TASK1
2026-05-26T09:23:47.071+00:00,1227,90744,119431.47265094194,112381.35247008233,145350.6002248049,104403.65724607196,117866.00117278112,103736.3235636143,172374.932155005,155695.81457326587,TASK1
2026-05-26T09:23:47.071+00:00,1227,90745,119428.5892759072,112377.12799038028,145350.6002248049,104401.0420919707,117867.87871931537,103734.24485137998,172375.7368178054,155696.8874569997,TASK1
2026-05-26T09:23:47.071+00:00,1227,90746,119426.77878460631,112375.85394094633,145349.05795443748,104397.62227506904,117868.41516118229,103730.55681354484,172373.1216637041,155695.07696569886,TASK1
2026-05-26T09:23:47.071+00:00,1227,90747,119426.57761890623,112374.31167057891,145349.32617537095,104395.81178376815,117869.48804491614,103730.08742691128,172372.65227707053,155696.68629129961,TASK1
2026-05-26T09:23:47.071+00:00,1227,90748,119426.84583983969,112371.69651647765,145350.13083817135,104393.19662966688,117867.94577454873,103729.08159841079,172372.182890437,155696.9545122331,TASK1
2026-05-26T09:23:47.071+00:00,1227,90749,119426.10823227266,112370.69068797716,145350.3990591048,104393.19662966688,117867.74460884863,103730.69092401158,172373.5239951043,155697.4909541,TASK1
2026-05-26T09:23:47.071+00:00,1227,90750,119425.90706657256,112370.95890891062,145351.7401637721,104393.7330715338,117869.62215538288,103730.48975831148,172375.1333207051,155698.56383783388,TASK1
2026-05-26T09:23:47.071+00:00,1227,90751,119423.2919124713,112368.61197574281,145347.7839050035,104392.19080116639,117868.34810594893,103726.80172047635,172373.85927127113,155699.9049425012,TASK1
2026-05-26T09:23:47.071+00:00,1227,90752,119420.67675837003,112364.92393790769,145347.58273930344,104392.45902209985,117869.15276874932,103727.87460421021,172374.39571313807,155701.78248903542,TASK1
2026-05-26T09:23:47.071+00:00,1227,90753,119421.4814211704,112365.19215884115,145350.26494863807,104395.67767330143,117870.7620943501,103732.70258101255,172379.76013180733,155705.8058030374,TASK1
2026-05-26T09:23:47.071+00:00,1227,90754,119419.67092986954,112369.48369377656,145348.1862364037,104398.35988263605,117867.34227744844,103739.40810434915,172378.75430330684,155703.1906489361,TASK1
2026-05-26T09:23:47.071+00:00,1227,90755,119413.03246176631,112369.014307143,145342.62065203435,104397.35405413558,117864.45890241371,103741.2856508834,172373.7251608044,155699.77083203447,TASK1
2026-05-26T09:23:47.071+00:00,1227,90756,119408.80798206426,112370.08719087686,145340.00549793307,104396.34822563508,117861.03908551205,103742.62675555071,172368.9642392354,155696.61923606627,TASK1
2026-05-26T09:23:47.071+00:00,1227,90757,119406.46104889645,112366.93559490866,145337.3903438318,104393.46485060034,117857.88748954385,103739.74338051598,172365.2762014003,155692.66297729767,TASK1
2026-05-26T09:23:47.071+00:00,1227,90758,119405.1869994625,112362.97933614008,145335.043410664,104392.99546396678,117859.49681514462,103738.20111014856,172365.2762014003,155692.93119823112,TASK1
2026-05-26T09:23:47.071+00:00,1227,90759,119403.91295002855,112362.24172857305,145332.96469842966,104391.72141453283,117859.49681514462,103736.9270607146,172363.4657100994,155691.65714879718,TASK1
2026-05-26T09:23:47.071+00:00,1227,90760,119402.10245872766,112358.28546980447,145333.76936123005,104389.91092323195,117860.56969887848,103735.65301128065,172364.2703728998,155690.11487842977,TASK1
2026-05-26T09:23:47.071+00:00,1227,90761,119402.37067966112,112355.13387383627,145333.76936123005,104392.05669069967,117863.52012914658,103739.40810434915,172367.75724503482,155692.26064589748,TASK1
2026-05-26T09:23:47.071+00:00,1227,90762,119406.52810412981,112356.34086803684,145336.31746009795,104395.20828666785,117866.20233848122,103741.21859565003,172370.9758962364,155693.86997149826,TASK1
2026-05-26T09:23:47.071+00:00,1227,90763,119405.79049656278,112354.53037673597,145336.11629439786,104395.00712096776,117864.12362624687,103740.480988083,172366.4831956009,155690.9865964635,TASK1
2026-05-26T09:23:47.071+00:00,1227,90764,119404.7846680623,112354.32921103587,145335.64690776428,104397.15288843548,117862.58135587946,103741.55387181685,172364.13626243308,155690.2489888965,TASK1
2026-05-26T09:23:47.071+00:00,1227,90765,119404.5835023622,112353.85982440232,145337.792675232,104399.03043496971,117864.19068148024,103741.82209275031,172367.35491363463,155692.66297729767,TASK1
2026-05-26T09:23:47.071+00:00,1227,90766,119403.30945292825,112350.17178656718,145337.5915095319,104398.02460646923,117866.87289081488,103741.62092705021,172368.15957643502,155692.93119823112,TASK1
2026-05-26T09:23:47.071+00:00,1227,90767,119401.49896162737,112347.02019059898,145334.97635543064,104396.21411516835,117866.13528324786,103742.15736891715,172365.00798046682,155690.31604412987,TASK1
2026-05-26T09:23:47.071+00:00,1227,90768,119399.95669125995,112345.74614116503,145332.89764319628,104397.01877796874,117862.98368727966,103742.69381078407,172363.73393103288,155689.31021562938,TASK1
2026-05-26T09:23:47.071+00:00,1227,90769,119399.21908369292,112344.20387079762,145331.8918146958,104398.89632450299,117861.97785877917,103741.95620321705,172365.0750357002,155689.8466574963,TASK1
2026-05-26T09:23:47.071+00:00,1227,90770,119398.4814761259,112340.78405389596,145331.42242806224,104398.42693786943,117861.50847214561,103742.22442415051,172366.95258223446,155690.11487842977,TASK1
2026-05-26T09:23:47.071+00:00,1227,90771,119396.67098482502,112336.02313232697,145331.69064899572,104397.6893303024,117862.84957681292,103745.17485441861,172368.8301287687,155689.91371272967,TASK1
2026-05-26T09:23:47.071+00:00,1227,90772,119395.39693539107,112330.99398982454,145330.41659956175,104395.34239713459,117862.38019017936,103743.6325840512,172368.6289630686,155690.71837553006,TASK1
2026-05-26T09:23:47.071+00:00,1227,90773,119394.65932782405,112328.1106147898,145330.41659956175,104393.80012676718,117860.56969887848,103741.82209275031,172369.433625869,155693.4005848647,TASK1
2026-05-26T09:23:47.071+00:00,1227,90774,119395.46399062444,112327.1047862893,145332.29414609598,104395.40945236795,117862.17902447926,103741.35270611676,172371.04295146978,155695.27813139893,TASK1
2026-05-26T09:23:47.071+00:00,1227,90775,119394.45816212395,112323.68496938764,145333.36702982985,104394.40362386747,117864.32479194697,103738.20111014856,172370.5735648362,155694.5405238319,TASK1
2026-05-26T09:23:47.071+00:00,1227,90776,119393.98877549039,112319.72871061906,145334.17169263025,104393.9342372339,117866.20233848122,103736.12239791421,172371.11000670312,155693.53469533141,TASK1
2026-05-26T09:23:47.071+00:00,1227,90777,119396.1345429581,112315.23600998354,145337.65856476527,104393.9342372339,117868.34810594893,103736.39061884768,172371.11000670312,155693.33352963132,TASK1
2026-05-26T09:23:47.071+00:00,1227,90778,119396.93920575849,112312.08441401535,145341.1454369003,104392.92840873342,117869.95743154972,103736.39061884768,172371.3782276366,155694.67463429866,TASK1
2026-05-26T09:23:47.071+00:00,1227,90779,119396.46981912492,112308.12815524676,145341.1454369003,104390.31325463214,117871.56675715049,103732.16613914563,172372.7193323039,155695.7475180325,TASK1
2026-05-26T09:23:47.071+00:00,1227,90780,119394.9275487575,112304.97655927856,145340.9442712002,104389.57564706512,117871.83497808395,103731.69675251207,172372.98755323738,155697.62506456676,TASK1
2026-05-26T09:23:47.071+00:00,1227,90781,119393.3852783901,112300.7520795765,145339.40200083278,104390.38030986552,117872.37141995088,103728.81337747733,172371.1770619365,155698.42972736713,TASK1
2026-05-26T09:23:47.071+00:00,1227,90782,119392.11122895614,112296.25937894099,145338.12795139884,104390.91675173244,117870.02448678308,103733.3731333462,172371.1770619365,155697.6921198001,TASK1
2026-05-26T09:23:47.071+00:00,1227,90783,119390.30073765526,112293.37600390625,145338.3961723323,104391.98963546629,117868.21399548219,103737.1282264147,172371.71350380342,155696.68629129961,TASK1
2026-05-26T09:23:47.071+00:00,1227,90784,119389.29490915478,112290.22440793805,145339.46905606615,104391.98963546629,117868.21399548219,103735.04951418035,172369.3665706356,155695.1440209322,TASK1
2026-05-26T09:23:47.071+00:00,1227,90785,119386.41153412004,112288.14569570372,145340.00549793307,104392.79429826669,117868.01282978209,103732.43436007909,172368.09252120167,155695.9486837326,TASK1
2026-05-26T09:23:47.071+00:00,1227,90786,119388.02085972083,112286.33520440283,145340.81016073347,104396.28117040171,117868.01282978209,103735.38479034719,172369.70184680246,155697.55800933338,TASK1
2026-05-26T09:23:47.071+00:00,1227,90787,119386.4785893534,112282.11072470077,145340.3407740999,104397.0858332021,117867.00700128161,103736.45767408104,172371.84761427017,155696.5521808329,TASK1
2026-05-26T09:23:47.071+00:00,1227,90788,119386.00920271984,112277.3498031318,145340.1396083998,104396.34822563508,117867.811664082,103734.91540371363,172373.45693987093,155693.4005848647,TASK1
2026-05-26T09:23:47.071+00:00,1227,90789,119386.54564458677,112273.3935443632,145340.1396083998,104397.15288843548,117871.03031528357,103733.10491241275,172373.25577417083,155691.85831449728,TASK1
2026-05-26T09:23:47.071+00:00,1227,90790,119385.00337421935,112269.97372746155,145337.792675232,104398.76221403625,117871.03031528357,103732.63552577919,172373.05460847073,155691.12070693026,TASK1
2026-05-26T09:23:47.071+00:00,1227,90791,119381.58355731769,112266.82213149335,145334.10463739687,104399.56687683664,117866.80583558152,103734.7812932469,172372.04877997027,155691.3889278637,TASK1
2026-05-26T09:23:47.071+00:00,1227,90792,119378.96840321642,112262.86587272475,145333.63525076333,104400.10331870356,117866.33644894796,103732.97080194602,172374.19454743798,155693.26647439797,TASK1
2026-05-26T09:23:47.071+00:00,1227,90793,119380.51067358383,112262.79881749139,145340.9442712002,104410.02749324172,117872.57258565098,103737.86583398173,172387.5385388778,155704.53175360343,TASK1
2026-05-26T09:23:47.071+00:00,1227,90794,119382.38822011808,112259.11077965627,145344.43114333524,104409.82632754162,117876.59589965294,103742.96203171754,172388.61142261163,155706.4093001377,TASK1
2026-05-26T09:23:47.071+00:00,1227,90795,119378.96840321642,112252.20409061958,145335.64690776428,104398.89632450299,117869.15276874932,103735.51890081393,172370.43945436948,155691.45598309708,TASK1
2026-05-26T09:23:47.071+00:00,1227,90796,119373.93926071397,112246.10206438327,145327.93555592722,104393.86718200054,117863.05074251302,103727.53932804338,172360.85055599816,155680.7942009919,TASK1
2026-05-26T09:23:47.071+00:00,1227,90797,119371.32410661271,112242.68224748161,145325.32040182594,104392.59313256659,117860.70380934521,103724.38773207518,172360.38116936458,155678.71548875756,TASK1
2026-05-26T09:23:47.071+00:00,1227,90798,119367.63606877757,112238.9942096465,145321.0959221239,104388.90509473147,117853.52889937506,103719.89503143966,172353.20625939444,155672.61346252126,TASK1
2026-05-26T09:23:47.071+00:00,1227,90799,119363.679810009,112231.2828578094,145316.06677962144,104383.87595222902,117848.23153593915,103712.72012146951,172344.42202382348,155665.43855255112,TASK1
2026-05-26T09:23:47.071+00:00,1227,90800,119360.79643497425,112223.57150597233,145311.037637119,104378.31036785965,117843.73883530364,103705.2769905659,172338.31999758718,155658.53186351442,TASK1
2026-05-26T09:23:47.071+00:00,1227,90801,119356.03551340528,112219.8834681372,145304.9356108827,104374.62233002452,117837.36858813388,103702.66183646463,172332.75441321783,155651.62517447773,TASK1
2026-05-26T09:23:47.400+00:00,1228,90802,119352.07925463669,112216.73187216901,145302.32045678142,104372.81183872365,117832.60766656489,103701.65600796413,172329.8710381831,155647.9371366426,TASK1
2026-05-26T09:23:47.400+00:00,1228,90803,119350.53698426927,112212.23917153348,145300.778186414,104369.66024275545,117829.99251246362,103699.57729572979,172325.37833754756,155643.4444360071,TASK1
2026-05-26T09:23:47.400+00:00,1228,90804,119350.80520520273,112206.40536623065,145297.8948113793,104365.43576305339,117829.99251246362,103696.96214162852,172323.03140437976,155639.75639817197,TASK1
2026-05-26T09:23:47.400+00:00,1228,90805,119349.26293483532,112200.57156092781,145299.2359160466,104365.2345973533,117829.2549048966,103697.23036256198,172327.3229393152,155641.90216563968,TASK1
2026-05-26T09:23:47.400+00:00,1228,90806,119347.98888540137,112195.81063935884,145302.45456724818,104367.380364821,117831.93711423123,103699.37613002969,172330.54159051675,155646.1937005751,TASK1
2026-05-26T09:23:47.400+00:00,1228,90807,119347.98888540137,112191.04971778985,145304.3321137824,104367.91680668794,117834.35110263241,103697.56563872882,172333.49202078485,155648.60768897625,TASK1
2026-05-26T09:23:47.400+00:00,1228,90808,119347.98888540137,112186.8252380878,145304.86855564933,104367.1791991209,117836.76509103358,103696.82803116179,172338.05177665374,155651.02167737743,TASK1
2026-05-26T09:23:47.400+00:00,1228,90809,119347.98888540137,112182.06431651882,145304.66738994923,104366.70981248734,117838.91085850129,103696.35864452823,172341.00220692184,155653.97210764553,TASK1
2026-05-26T09:23:47.400+00:00,1228,90810,119347.5194987678,112181.05848801833,145305.47205274962,104369.9284636889,117838.17325093427,103699.84551666325,172342.61153252263,155653.50272101196,TASK1
2026-05-26T09:23:47.400+00:00,1228,90811,119346.78189120078,112180.58910138477,145307.3495992839,104372.87889395701,117840.0507974685,103704.6734934656,172344.2208581234,155651.96045064455,TASK1
2026-05-26T09:23:47.400+00:00,1228,90812,119345.50784176683,112177.43750541657,145307.1484335838,104374.4882195578,117842.19656493622,103708.69680746755,172346.09840465765,155651.75928494445,TASK1
2026-05-26T09:23:47.400+00:00,1228,90813,119345.30667606673,112172.40836291412,145307.95309638418,104373.21417012384,117842.73300680314,103706.6180952332,172347.97595119188,155651.2898983109,TASK1
2026-05-26T09:23:47.400+00:00,1228,90814,119344.70317896643,112167.64744134515,145309.22714581812,104373.21417012384,117844.81171903749,103707.15453710014,172347.90889595854,155650.95462214405,TASK1
2026-05-26T09:23:47.400+00:00,1228,90815,119343.69735046594,112163.95940351003,145308.22131731763,104374.55527479116,117845.07993997095,103706.95337140004,172346.3666255911,155649.1441308432,TASK1
2026-05-26T09:23:47.400+00:00,1228,90816,119342.69152196546,112158.66204007412,145307.4837097506,104373.54944629066,117844.87877427085,103699.77846142989,172344.82435522368,155648.1383023427,TASK1
2026-05-26T09:23:47.400+00:00,1228,90817,119339.2717050638,112152.82823477128,145307.01432311704,104369.59318752208,117843.06828296998,103697.43152826208,172344.08674765666,155646.05959010834,TASK1
2026-05-26T09:23:47.400+00:00,1228,90818,119338.80231843023,112151.55418533733,145306.5449364835,104371.73895498979,117844.4093876373,103706.28281906639,172345.42785232398,155646.86425290874,TASK1
2026-05-26T09:23:47.400+00:00,1228,90819,119337.52826899628,112149.47547310298,145306.5449364835,104375.76226899175,117845.48227137115,103714.3294470703,172347.84184072516,155649.01002037645,TASK1
2026-05-26T09:23:47.400+00:00,1228,90820,119335.7177776954,112148.20142366903,145305.27088704953,104377.90803645946,117845.7504923046,103713.59183950326,172350.25582912634,155650.0829041103,TASK1
2026-05-26T09:23:47.400+00:00,1228,90821,119335.5166119953,112145.04982770083,145304.26505854903,104377.17042889242,117845.54932660451,103710.976685402,172351.32871286018,155649.07707560982,TASK1
2026-05-26T09:23:47.400+00:00,1228,90822,119333.9743416279,112141.89823173263,145303.52745098202,104377.4386498259,117848.23153593915,103709.70263596805,172352.6698175275,155648.60768897625,TASK1
2026-05-26T09:23:47.400+00:00,1228,90823,119331.62740846007,112139.0148566979,145302.52162248152,104376.96926319232,117845.88460277134,103710.7755197019,172352.4686518274,155650.4852355105,TASK1
2026-05-26T09:23:47.400+00:00,1228,90824,119330.35335902612,112134.25393512892,145302.05223584798,104377.2374841258,117845.14699520433,103711.04374063536,172352.73687276087,155651.82634017782,TASK1
2026-05-26T09:23:47.400+00:00,1228,90825,119330.15219332604,112131.10233916073,145303.66156144874,104378.57858879311,117846.21987893818,103714.26239183692,172353.54153556126,155652.36278204474,TASK1
2026-05-26T09:23:47.400+00:00,1228,90826,119327.53703922476,112128.75540599291,145304.46622424913,104380.45613532736,117847.5609836055,103715.33527557077,172355.68730302897,155655.31321231285,TASK1
2026-05-26T09:23:47.400+00:00,1228,90827,119326.53121072426,112126.14025189164,145305.539107983,104382.87012372853,117848.36564640589,103717.4810430385,172358.90595423055,155658.53186351442,TASK1
2026-05-26T09:23:47.400+00:00,1228,90828,119326.33004502418,112123.52509779038,145307.41665451723,104384.74767026278,117848.90208827281,103718.82214770581,172359.9788379644,155659.33652631482,TASK1
2026-05-26T09:23:47.400+00:00,1228,90829,119325.59243745715,112122.25104835643,145308.22131731763,104385.82055399663,117851.85251854091,103720.43147330658,172364.00215196636,155663.35984031676,TASK1
2026-05-26T09:23:47.400+00:00,1228,90830,119324.85482989013,112119.63589425515,145308.75775918455,104385.35116736307,117853.4618441417,103720.69969424006,172366.14791943406,155664.70094498407,TASK1
2026-05-26T09:23:47.400+00:00,1228,90831,119322.23967578885,112114.33853081924,145308.55659348445,104382.7360132618,117852.4560156412,103717.81631920532,172363.80098626626,155662.35401181626,TASK1
2026-05-26T09:23:47.400+00:00,1228,90832,119320.42918448798,112111.72337671797,145309.0930353514,104384.61355979604,117854.60178310891,103718.08454013878,172365.41031186702,155665.8408839513,TASK1
2026-05-26T09:23:47.400+00:00,1228,90833,119319.15513505402,112109.37644355017,145307.2825440505,104385.15000166297,117852.79129180804,103725.05828440883,172366.4831956009,155668.25487235247,TASK1
2026-05-26T09:23:47.400+00:00,1228,90834,119317.34464375314,112108.10239411621,145305.47205274962,104385.41822259643,117850.17613770676,103728.81337747733,172365.74558803387,155666.17616011814,TASK1
2026-05-26T09:23:47.400+00:00,1228,90835,119317.6128646866,112106.29190281533,145304.46622424913,104384.14417316248,117851.78546330755,103726.46644430952,172365.54442233377,155663.56100601685,TASK1
2026-05-26T09:23:47.400+00:00,1228,90836,119318.14930655353,112105.55429524831,145306.07554984992,104383.13834466199,117855.00411450911,103724.11951114172,172366.6173060676,155663.82922695033,TASK1
2026-05-26T09:23:47.400+00:00,1228,90837,119317.67991991997,112104.81668768129,145308.22131731763,104383.67478652892,117855.8087773095,103723.65012450816,172366.4161403675,155664.90211068417,TASK1
2026-05-26T09:23:47.400+00:00,1228,90838,119315.33298675217,112100.8604289127,145306.1426050833,104381.32785336112,117855.07116974247,103721.57141227381,172360.85055599816,155662.01873564944,TASK1
2026-05-26T09:23:47.400+00:00,1228,90839,119312.44961171743,112097.5076672444,145304.5332794825,104380.79141149418,117857.82043431047,103722.97957217449,172359.7776722643,155665.57266301784,TASK1
2026-05-26T09:23:47.400+00:00,1228,90840,119310.10267854962,112095.96539687699,145304.06389284894,104379.24914112677,117857.82043431047,103722.51018554093,172359.04006469727,155666.10910488476,TASK1
2026-05-26T09:23:47.400+00:00,1228,90841,119306.95108258142,112092.00913810839,145302.25340154808,104376.09754515857,117856.27816394306,103721.50435704044,172357.49779432986,155662.95750891656,TASK1
2026-05-26T09:23:47.400+00:00,1228,90842,119305.14059128055,112089.66220494059,145303.5945062154,104375.35993759155,117857.35104767692,103721.30319134035,172357.49779432986,155662.75634321646,TASK1
2026-05-26T09:23:47.400+00:00,1228,90843,119305.67703314747,112089.46103924049,145307.8860411508,104376.16460039194,117860.83791981195,103723.44895880806,172358.83889899717,155663.2927850834,TASK1
2026-05-26T09:23:47.400+00:00,1228,90844,119305.67703314747,112086.84588513922,145309.76358768504,104374.89055095799,117862.98368727966,103724.52184254192,172358.3695123636,155664.36566881725,TASK1
2026-05-26T09:23:47.400+00:00,1228,90845,119302.52543717927,112082.88962637063,145309.2942010515,104373.0800596571,117861.7096378457,103720.83380470678,172359.174175164,155665.43855255112,TASK1
2026-05-26T09:23:47.400+00:00,1228,90846,119300.17850401146,112078.39692573511,145307.4837097506,104371.26956835622,117860.43558841175,103722.97957217449,172359.174175164,155662.01873564944,TASK1
2026-05-26T09:23:47.400+00:00,1228,90847,119298.09979177712,112076.58643443423,145305.67321844972,104372.61067302355,117858.35687617741,103727.53932804338,172358.9730094639,155658.59891874777,TASK1
2026-05-26T09:23:47.400+00:00,1228,90848,119295.48463767585,112077.39109723462,145304.66738994923,104373.41533582394,117856.81460581,103726.53349954289,172359.5094513308,155656.52020651344,TASK1
2026-05-26T09:23:47.400+00:00,1228,90849,119293.67414637496,112075.84882686721,145302.05223584798,104373.41533582394,117856.34521917642,103725.5276710424,172361.1187769316,155653.90505241216,TASK1
2026-05-26T09:23:47.400+00:00,1228,90850,119292.40009694101,112071.3561262317,145303.3933405153,104372.40950732345,117856.14405347632,103724.25362160844,172363.53276533278,155654.70971521255,TASK1
2026-05-26T09:23:47.400+00:00,1228,90851,119291.662489374,112068.74097213041,145305.00266611608,104371.94012068989,117857.75337907711,103723.78423497488,172364.0692071997,155655.51437801294,TASK1
2026-05-26T09:23:47.400+00:00,1228,90852,119290.92488180696,112066.39403896261,145305.27088704953,104371.94012068989,117857.0157715101,103723.78423497488,172364.33742813318,155657.3919245472,TASK1
2026-05-26T09:23:47.400+00:00,1228,90853,119289.91905330648,112063.24244299441,145305.80732891645,104370.66607125594,117858.89331804433,103723.04662740786,172367.55607933472,155659.26947108144,TASK1
2026-05-26T09:23:47.400+00:00,1228,90854,119289.18144573945,112061.96839356046,145307.95309638418,104372.27539685671,117862.38019017936,103724.11951114172,172370.50650960283,155660.3423548153,TASK1
2026-05-26T09:23:47.400+00:00,1228,90855,119288.44383817243,112059.35323945919,145310.6353057188,104374.95760619135,117862.91663204628,103726.26527860943,172371.84761427017,155660.3423548153,TASK1
2026-05-26T09:23:47.400+00:00,1228,90856,119284.7558003373,112061.4990069269,145307.21548881714,104373.95177769086,117858.42393141077,103730.28859261138,172366.8184717677,155655.0449913794,TASK1
