timestamp_utc,packet_index,sample_index,AF3,AF4,F3,F4,FC5,FC6,O2,O1,label
2026-05-26T09:24:56.472+00:00,1412,108077,107349.19248213679,108279.98617648914,139238.71686920128,101966.6688998543,119677.4983021615,106742.07439924173,171923.98571061916,153797.9503033102,TASK2
2026-05-26T09:24:56.472+00:00,1412,108078,107352.00880193815,108283.33893815744,139230.67024119737,101959.22576895068,119679.57701439584,106744.75660857637,171924.65626295283,153799.42551844424,TASK2
2026-05-26T09:24:56.472+00:00,1412,108079,107351.00297343766,108279.38267938884,139220.81312189257,101948.02754497857,119679.37584869574,106743.21433820896,171920.96822511771,153797.88324807683,TASK2
2026-05-26T09:24:56.472+00:00,1412,108080,107349.99714493718,108278.37685088835,139211.22422352125,101938.17042567379,119677.56535739487,106744.82366380973,171918.88951288335,153795.53631490903,TASK2
2026-05-26T09:24:56.472+00:00,1412,108081,107349.25953737015,108278.17568518825,139204.31753448455,101929.65441103632,119677.36419169477,106745.89654754358,171919.15773381683,153795.33514920893,TASK2
2026-05-26T09:24:56.472+00:00,1412,108082,107348.25370886966,108277.16985668777,139194.72863611323,101918.72440799767,119676.35836319427,106746.16476847704,171918.68834718326,153794.86576257535,TASK2
2026-05-26T09:24:56.472+00:00,1412,108083,107346.44321756878,108276.43224912074,139186.48084240922,101907.2579630921,119676.35836319427,106746.16476847704,171920.56589371752,153795.67042537575,TASK2
2026-05-26T09:24:56.472+00:00,1412,108084,107345.16916813483,108276.43224912074,139179.57415337252,101896.05973911998,119678.23590972852,106745.42716091003,171923.51632398562,153796.2068672427,TASK2
2026-05-26T09:24:56.472+00:00,1412,108085,107345.16916813483,108277.5051328546,139172.39924340238,101885.93439888173,119678.03474402842,106744.42133240953,171924.320986786,153796.47508817614,TASK2
2026-05-26T09:24:56.472+00:00,1412,108086,107345.43738906829,108277.5051328546,139163.8832287649,101876.88194237734,119677.2971364614,106743.68372484251,171924.320986786,153797.01153004306,TASK2
2026-05-26T09:24:56.472+00:00,1412,108087,107345.43738906829,108278.57801658845,139156.44009786128,101870.51169520756,119676.82774982783,106748.77992257832,171927.80785892103,153799.42551844424,TASK2
2026-05-26T09:24:56.472+00:00,1412,108088,107347.04671466908,108281.52844685655,139151.67917629232,101863.87322710434,119678.97351729554,106750.65746911257,171930.49006825566,153800.76662311156,TASK2
2026-05-26T09:24:56.472+00:00,1412,108089,107348.65604026985,108281.32728115645,139142.62671978792,101854.01610779956,119679.50995916247,106749.38341967862,171929.21601882172,153795.2010387422,TASK2
2026-05-26T09:24:56.472+00:00,1412,108090,107348.1866536363,108282.13194395685,139133.30604235004,101846.8411978294,119677.96768879506,106749.91986154554,171927.6737484543,153789.9036753063,TASK2
2026-05-26T09:24:56.472+00:00,1412,108091,107347.44904606928,108281.12611545635,139123.9853649122,101839.39806692579,119675.88897656072,106750.45630341247,171926.93614088726,153787.28852120502,TASK2
2026-05-26T09:24:56.472+00:00,1412,108092,107348.52192980313,108283.0036619906,139117.8833386759,101832.75959882255,119674.61492712676,106751.26096621287,171928.00902462113,153787.08735550492,TASK2
2026-05-26T09:24:56.472+00:00,1412,108093,107346.44321756878,108284.61298759139,139109.90376590536,101823.70714231816,119671.1951102251,106751.79740807979,171925.9303123868,153785.81330607098,TASK2
2026-05-26T09:24:56.472+00:00,1412,108094,107345.97383093523,108287.02697599256,139102.7288559352,101817.3368951484,119671.73155209202,106753.40673368057,171926.73497518717,153789.56839913945,TASK2
2026-05-26T09:24:56.472+00:00,1412,108095,107345.23622336819,108285.7529265586,139091.79885289655,101808.01621771054,119669.38461892422,106752.40090518008,171923.85160015244,153788.02612877204,TASK2
2026-05-26T09:24:56.472+00:00,1412,108096,107342.88929020039,108286.28936842554,139080.33240799097,101796.28155187149,119665.96480202256,106750.85863481267,171918.82245765,153785.1427537373,TASK2
2026-05-26T09:24:56.472+00:00,1412,108097,107342.41990356683,108288.97157776017,139072.08461428696,101787.22909536709,119665.495415389,106752.19973947998,171917.8166291495,153785.67919560423,TASK2
2026-05-26T09:24:56.472+00:00,1412,108098,107343.22456636722,108290.04446149402,139065.1779252503,101778.71308072962,119665.2942496889,106753.27262321384,171916.00613784863,153782.52759963603,TASK2
2026-05-26T09:24:56.472+00:00,1412,108099,107343.02340066712,108290.04446149402,139055.3208059455,101767.24663582405,119663.48375838801,106753.27262321384,171912.04987908003,153778.8395618009,TASK2
2026-05-26T09:24:56.472+00:00,1412,108100,107342.82223496702,108291.65378709481,139047.07301224148,101758.19417931965,119662.20970895406,106755.15016974809,171912.85454188043,153777.2972914335,TASK2
2026-05-26T09:24:56.472+00:00,1412,108101,107345.23622336819,108292.99489176212,139041.77564880557,101752.89681588374,119664.8919182887,106758.36882094965,171918.48718148316,153780.78416356852,TASK2
2026-05-26T09:24:56.472+00:00,1412,108102,107346.57732803552,108295.67710109676,139035.4054016358,101745.18546404666,119665.96480202256,106762.12391401814,171921.1693908178,153782.12526823583,TASK2
2026-05-26T09:24:56.472+00:00,1412,108103,107350.332421104,108301.24268546613,139031.58325333396,101739.6198796773,119670.18928172461,106770.03643155532,171925.19270481975,153785.41097467078,TASK2
2026-05-26T09:24:56.472+00:00,1412,108104,107354.35573510596,108305.53422040155,139028.69987829923,101732.98141157407,119673.67615385963,106775.40085022459,171928.6795769548,153786.48385840462,TASK2
2026-05-26T09:24:56.472+00:00,1412,108105,107356.76972350714,108307.67998786927,139021.79318926253,101723.92895506967,119675.82192132736,106777.54661769231,171930.02068162212,153786.28269270452,TASK2
2026-05-26T09:24:56.472+00:00,1412,108106,107357.30616537406,108308.21642973619,139013.0089536916,101712.19428923063,119677.16302599467,106779.15594329308,171929.01485312163,153786.550913638,TASK2
2026-05-26T09:24:56.472+00:00,1412,108107,107357.10499967396,108309.02109253658,139005.02938092104,101701.26428619199,119676.42541842764,106780.4970479604,171929.01485312163,153788.6966811057,TASK2
2026-05-26T09:24:56.472+00:00,1412,108108,107358.71432527475,108312.23974373814,138998.6591337513,101690.33428315334,119677.4983021615,106783.71569916197,171929.81951592202,153792.98821604112,TASK2
2026-05-26T09:24:56.472+00:00,1412,108109,107361.39653460938,108315.4583949397,138994.16643311578,101680.47716384855,119682.32627896384,106788.27545503085,171933.30638805704,153797.81619284346,TASK2
2026-05-26T09:24:56.472+00:00,1412,108110,107363.00586021016,108317.60416240741,138987.52796501253,101670.08360267684,119684.20382549809,106790.1530015651,171935.18393459127,153800.76662311156,TASK2
2026-05-26T09:24:56.472+00:00,1412,108111,107364.88340674441,108317.60416240741,138982.23060157662,101659.15359963819,119685.27670923194,106788.07428933075,171934.44632702426,153802.10772777887,TASK2
2026-05-26T09:24:56.472+00:00,1412,108112,107364.41402011085,108317.40299670731,138973.4463660057,101649.2964803334,119682.39333419722,106791.29294053231,171933.44049852376,153800.56545741146,TASK2
2026-05-26T09:24:56.472+00:00,1412,108113,107363.40819161036,108317.67121764079,138963.05280483398,101639.70758196207,119678.70529636208,106792.9022661331,171932.43467002327,153796.6091986429,TASK2
2026-05-26T09:24:56.472+00:00,1412,108114,107362.13414217641,108317.93943857425,138954.26856926305,101628.2411370565,119676.89480506121,106793.97514986695,171933.7757746906,153794.53048640853,TASK2
2026-05-26T09:24:56.472+00:00,1412,108115,107361.93297647631,108319.0123223081,138947.63010115983,101615.97002935052,119677.69946786159,106796.38913826812,171934.31221655753,153794.53048640853,TASK2
2026-05-26T09:24:56.472+00:00,1412,108116,107362.46941834324,108318.54293567454,138940.9916330566,101604.50358444494,119678.23590972852,106797.46202200199,171933.57460899052,153792.71999510765,TASK2
2026-05-26T09:24:56.472+00:00,1412,108117,107362.26825264315,108317.53710717405,138933.01206028604,101592.50069767245,119679.30879346238,106795.6515307011,171932.83700142347,153790.37306193984,TASK2
2026-05-26T09:24:56.472+00:00,1412,108118,107362.80469451007,108317.53710717405,138924.2278247151,101582.10713650074,119680.91811906316,106794.91392313408,171931.56295198953,153787.48968690512,TASK2
2026-05-26T09:24:56.472+00:00,1412,108119,107364.14579917738,108320.48753744215,138915.71181007763,101573.85934279673,119682.52744466394,106796.2550278014,171931.83117292298,153789.36723343935,TASK2
2026-05-26T09:24:56.472+00:00,1412,108120,107365.21868291125,108321.56042117601,138909.0733419744,101565.07510722578,119685.20965399858,106799.47367900296,171933.70871945724,153792.8541055744,TASK2
2026-05-26T09:24:56.472+00:00,1412,108121,107366.2915666451,108320.0181508086,138902.70309480466,101554.41332512061,119686.28253773243,106799.27251330286,171933.50755375714,153793.12232650784,TASK2
2026-05-26T09:24:56.472+00:00,1412,108122,107366.55978757856,108319.8169851085,138894.99174296757,101542.94688021504,119686.08137203233,106796.92558013505,171930.35595778894,153790.77539334004,TASK2
2026-05-26T09:24:56.472+00:00,1412,108123,107367.63267131241,108320.62164790889,138888.62149579782,101533.89442371063,119685.88020633224,106796.92558013505,171929.08190835497,153789.23312297263,TASK2
2026-05-26T09:24:56.472+00:00,1412,108124,107368.43733411281,108321.15808977581,138880.91014396073,101524.84196720623,119686.41664819917,106797.46202200199,171928.88074265487,153788.22729447213,TASK2
2026-05-26T09:24:56.472+00:00,1412,108125,107370.31488064706,108322.23097350966,138875.61278052483,101517.93527816955,119688.02597379994,106797.9984638689,171929.68540545527,153786.41680317125,TASK2
2026-05-26T09:24:56.472+00:00,1412,108126,107368.77261027963,108322.7674153766,138867.6332077543,101507.54171699783,119686.48370343253,106797.9984638689,171928.14313508786,153784.33809093692,TASK2
2026-05-26T09:24:56.472+00:00,1412,108127,107368.30322364607,108324.37674097737,138860.45829778412,101498.75748142689,119686.01431679897,106802.28999880432,171930.8253444225,153786.21563747118,TASK2
2026-05-26T09:24:56.472+00:00,1412,108128,107367.83383701251,108325.98606657816,138853.55160874742,101492.38723425713,119686.01431679897,106805.24042907242,171932.97111189022,153788.0931840054,TASK2
2026-05-26T09:24:56.472+00:00,1412,108129,107368.6384998129,108328.13183404587,138847.44958251112,101486.01698708737,119687.08720053283,106806.04509187282,171932.97111189022,153787.8920183053,TASK2
2026-05-26T09:24:56.472+00:00,1412,108130,107371.92420624783,108333.02686608158,138843.62743420928,101480.51845795136,119693.65861340269,106811.54362100882,171937.19559159226,153792.38471894083,TASK2
2026-05-26T09:24:56.472+00:00,1412,108131,107372.99708998168,108334.09974981543,138835.9160823722,101474.41643171506,119696.07260180385,106814.49405127692,171938.26847532613,153792.18355324073,TASK2
2026-05-26T09:24:56.472+00:00,1412,108132,107372.79592428159,108336.24551728314,138828.47295146858,101469.38728921262,119695.6032151703,106815.56693501078,171939.07313812652,153791.71416660715,TASK2
2026-05-26T09:24:56.472+00:00,1412,108133,107371.7900957811,108338.65950568432,138821.02982056496,101461.94415830901,119695.13382853674,106817.17626061157,171938.60375149295,153790.17189623974,TASK2
2026-05-26T09:24:56.472+00:00,1412,108134,107371.7900957811,108338.45833998422,138813.85491059482,101452.35525993767,119694.93266283664,106817.44448154503,171935.45215552475,153788.36140493889,TASK2
2026-05-26T09:24:56.472+00:00,1412,108135,107371.32070914753,108339.53122371808,138803.99779129002,101444.6439081006,119693.92683433615,106818.78558621234,171934.44632702426,153788.62962587233,TASK2
2026-05-26T09:24:56.472+00:00,1412,108136,107369.24199691319,108339.06183708452,138793.06778825138,101434.25034692888,119692.6527849022,106820.93135368005,171935.25098982465,153787.8920183053,TASK2
2026-05-26T09:24:56.472+00:00,1412,108137,107369.0408312131,108338.32422951749,138785.62465734777,101420.36991362213,119693.99388956951,106820.73018797995,171936.32387355852,153787.1544107383,TASK2
2026-05-26T09:24:56.472+00:00,1412,108138,107370.38193588042,108338.59245045095,138779.254410178,101406.48948031539,119695.33499423684,106820.26080134639,171936.86031542544,153787.1544107383,TASK2
2026-05-26T09:24:56.477+00:00,1412,108139,107370.38193588042,108340.73821791867,138772.07950020785,101393.6819307425,119696.13965703722,106820.79724321332,171936.12270785842,153783.1981519697,TASK2
2026-05-26T09:24:56.477+00:00,1412,108140,107371.18659868081,108343.4204272533,138766.51391583847,101386.23879983887,119698.82186637186,106825.08877814874,171937.46381252573,153782.1923234692,TASK2
2026-05-26T09:24:56.477+00:00,1412,108141,107370.98543298071,108343.4204272533,138758.53434306793,101379.33211080219,119697.27959600445,106824.61939151518,171938.26847532613,153782.9969862696,TASK2
2026-05-26T09:24:56.477+00:00,1412,108142,107369.97960448022,108344.22509005369,138752.43231683163,101376.71695670091,119697.81603787137,106831.0566939183,171945.51044052964,153791.0436142735,TASK2
2026-05-26T09:24:56.477+00:00,1412,108143,107369.77843878012,108343.75570342013,138745.52562779494,101373.02891886579,119699.96180533909,106831.0566939183,171947.11976613043,153792.92116080775,TASK2
2026-05-26T09:24:56.477+00:00,1412,108144,107367.43150561232,108338.99478185114,138730.57231075433,101362.63535769407,119697.07843030435,106824.41822581508,171935.92154215832,153781.9911577691,TASK2
2026-05-26T09:24:56.477+00:00,1412,108145,107365.08457244451,108337.18429055027,138720.71519144953,101356.26511052431,119694.99971807,106822.07129264728,171930.08773685546,153775.0844687324,TASK2
2026-05-26T09:24:56.477+00:00,1412,108146,107366.69389804528,108336.17846204978,138717.2953745479,101357.33799425817,119696.60904367079,106823.41239731459,171933.30638805704,153776.6937943332,TASK2
2026-05-26T09:24:56.477+00:00,1412,108147,107368.839665513,108335.17263354929,138713.60733671277,101359.21554079241,119699.02303207196,106822.4065688141,171934.37927179088,153778.303119934,TASK2
2026-05-26T09:24:56.477+00:00,1412,108148,107369.10788644647,108335.17263354929,138706.16420580915,101363.50707572783,119699.02303207196,106821.93718218054,171935.18393459127,153778.1019542339,TASK2
2026-05-26T09:24:56.477+00:00,1412,108149,107368.6384998129,108335.97729634968,138697.64819117167,101368.60327346364,119698.82186637186,106820.93135368005,171935.45215552475,153777.36434666687,TASK2
2026-05-26T09:24:56.477+00:00,1412,108150,107367.36445037895,108335.50790971612,138689.40039746766,101373.96769213292,119697.81603787137,106820.46196704649,171934.17810609078,153777.9007885338,TASK2
2026-05-26T09:24:56.477+00:00,1412,108151,107366.090400945,108333.16097654832,138680.61616189673,101377.45456426794,119696.81020937089,106819.99258041293,171934.44632702426,153779.2418932011,TASK2
2026-05-26T09:24:56.810+00:00,1413,108152,107364.01168871066,108332.42336898128,138671.0272635254,101382.2825410703,119695.8043808704,106819.99258041293,171935.25098982465,153777.96784376717,TASK2
2026-05-26T09:24:56.812+00:00,1413,108153,107363.27408114362,108333.76447364861,138663.85235355524,101390.59739000766,119693.99388956951,106819.2549728459,171934.24516132416,153775.0844687324,TASK2
2026-05-26T09:24:56.812+00:00,1413,108154,107363.5423020771,108335.64202018284,138658.0185482524,101398.91223894503,119693.25628200249,106819.2549728459,171933.23933282366,153773.00575649808,TASK2
2026-05-26T09:24:56.812+00:00,1413,108155,107364.61518581095,108336.44668298324,138651.1118592157,101406.95886694895,119694.5973866698,106820.59607751323,171933.03816712357,153770.3906023968,TASK2
2026-05-26T09:24:56.812+00:00,1413,108156,107364.88340674441,108336.24551728314,138643.40050737862,101412.32328561823,119696.20671227059,106819.8584699462,171934.37927179088,153767.77544829552,TASK2
2026-05-26T09:24:56.812+00:00,1413,108157,107363.07291544352,108334.16680504881,138634.34805087425,101415.81015775325,119694.93266283664,106817.51153677839,171932.83700142347,153763.01452672656,TASK2
2026-05-26T09:24:56.812+00:00,1413,108158,107362.3353078765,108333.16097654832,138628.24602463795,101422.78390202331,119693.92683433615,106818.04797864532,171932.36761478992,153760.9358144922,TASK2
2026-05-26T09:24:56.812+00:00,1413,108159,107364.48107534421,108333.16097654832,138624.82620773627,101431.36697189414,119698.7548111385,106819.92552517957,171934.24516132416,153762.00869822607,TASK2
2026-05-26T09:24:56.812+00:00,1413,108160,107364.01168871066,108331.08226431397,138618.18773963305,101436.46316962995,119697.748982638,106819.18791761254,171932.16644908983,153757.51599759056,TASK2
2026-05-26T09:24:56.812+00:00,1413,108161,107364.68224104431,108332.35631374792,138613.42681806406,101444.10746623366,119698.68775590514,106819.52319377937,171934.84865842445,153760.60053832538,TASK2
2026-05-26T09:24:56.812+00:00,1413,108162,107364.48107534421,108331.88692711436,138604.64258249314,101449.20366396949,119698.9559768386,106817.98092341195,171938.60375149295,153765.16029419427,TASK2
2026-05-26T09:24:56.812+00:00,1413,108163,107364.27990964412,108332.15514804782,138595.8583469222,101454.03164077182,119700.56530243937,106818.51736527888,171941.55418176105,153769.45182912968,TASK2
2026-05-26T09:24:56.812+00:00,1413,108164,107363.27408114362,108333.49625271514,138587.34233228472,101459.12783850763,119701.36996523976,106818.51736527888,171941.82240269452,153771.5975965974,TASK2
2026-05-26T09:24:56.812+00:00,1413,108165,107363.81052301056,108335.10557831592,138578.82631764727,101464.49225717691,119701.36996523976,106819.8584699462,171940.54835326056,153771.86581753087,TASK2
2026-05-26T09:24:56.812+00:00,1413,108166,107364.07874394402,108336.98312485017,138569.5056402094,101471.1977805135,119701.9064071067,106825.22288861548,171939.54252476007,153770.05532622998,TASK2
2026-05-26T09:24:56.812+00:00,1413,108167,107362.5364735766,108338.86067138442,138562.5989511727,101477.9033038501,119700.09591580581,106827.36865608318,171937.46381252573,153766.6355093283,TASK2
2026-05-26T09:24:56.812+00:00,1413,108168,107360.9942032092,108341.27465978559,138555.42404120255,101484.60882718669,119695.06677330336,106828.7097607505,171933.50755375714,153762.1428086928,TASK2
2026-05-26T09:24:56.812+00:00,1413,108169,107359.9883747087,108343.15220631984,138547.44446843202,101489.16858305557,119692.71984013556,106828.97798168396,171930.89239965586,153757.65010805728,TASK2
2026-05-26T09:24:56.812+00:00,1413,108170,107358.17788340781,108343.95686912023,138537.31912819375,101491.8507923902,119687.95891856658,106828.24037411694,171926.66791995382,153752.0845236879,TASK2
2026-05-26T09:24:56.812+00:00,1413,108171,107357.17205490734,108342.4145987528,138527.9984507559,101494.53300172483,119685.34376446532,106827.50276654991,171924.85742865293,153748.66470678625,TASK2
2026-05-26T09:24:56.812+00:00,1413,108172,107357.17205490734,108340.87232838539,138521.0917617192,101496.67876919256,119689.0988575338,106828.57565028376,171926.73497518717,153747.92709921923,TASK2
2026-05-26T09:24:56.812+00:00,1413,108173,107357.4402758408,108339.8664998849,138516.06261921677,101498.01987385987,119692.0492878019,106827.56982178328,171926.26558855362,153746.92127071874,TASK2
2026-05-26T09:24:56.812+00:00,1413,108174,107358.24493864119,108340.13472081837,138509.42415111352,101498.55631572679,119692.8539506023,106827.36865608318,171925.25976005313,153746.18366315172,TASK2
2026-05-26T09:24:56.812+00:00,1413,108175,107358.78138050811,108343.08515108647,138501.44457834298,101499.36097852718,119693.39039246923,106830.8555282182,171925.25976005313,153746.18366315172,TASK2
2026-05-26T09:24:56.812+00:00,1413,108176,107358.58021480801,108343.88981388685,138493.7332265059,101498.62337096017,119693.39039246923,106832.464853819,171925.79620192005,153747.25654688556,TASK2
2026-05-26T09:24:56.812+00:00,1413,108177,107355.16039790635,108341.81110165252,138483.07144440073,101494.39889125811,119691.0434593014,106830.38614158465,171921.571722218,153745.17783465123,TASK2
2026-05-26T09:24:56.812+00:00,1413,108178,107352.54524380509,108341.60993595242,138473.75076696285,101490.17441155606,119688.42830520014,106829.38031308416,171918.68834718326,153743.09912241687,TASK2
2026-05-26T09:24:56.812+00:00,1413,108179,107351.00297343766,108340.87232838539,138462.55254299074,101482.9995015859,119686.88603483273,106828.9109264506,171916.8778558824,153740.48396831562,TASK2
2026-05-26T09:24:56.812+00:00,1413,108180,107350.80180773756,108340.40294175183,138452.15898181903,101477.97035908345,119687.42247669965,106831.8613567187,171915.335585515,153738.40525608126,TASK2
2026-05-26T09:24:56.812+00:00,1413,108181,107349.79597923708,108338.32422951749,138443.91118811502,101471.33189098023,119686.68486913263,106831.6601910186,171912.45221048023,153734.18077637922,TASK2
2026-05-26T09:24:56.812+00:00,1413,108182,107349.46070307025,108338.32422951749,138433.7187926434,101468.91790257907,119685.14259876522,106830.8555282182,171909.70294591223,153730.6939042442,TASK2
2026-05-26T09:24:56.812+00:00,1413,108183,107349.46070307025,108338.12306381739,138423.32523147168,101473.7458793814,119683.86854933127,106828.5085950504,171908.69711741174,153729.15163387675,TASK2
2026-05-26T09:24:56.812+00:00,1413,108184,107348.45487456975,108340.00061035164,138413.19989123344,101478.57385618375,119682.86272083077,106830.38614158465,171909.23355927868,153729.15163387675,TASK2
2026-05-26T09:24:56.812+00:00,1413,108185,107347.1808251358,108340.53705221857,138403.61099286212,101482.5971701857,119683.66738363117,106831.72724625196,171908.49595171164,153727.3411425759,TASK2
2026-05-26T09:24:56.812+00:00,1413,108186,107347.44904606928,108340.53705221857,138396.1678619585,101486.3522632542,119687.69069763312,106831.99546718542,171909.0323935786,153725.26243034154,TASK2
2026-05-26T09:24:56.812+00:00,1413,108187,107349.32659260352,108340.067665585,138388.4565101214,101487.96158885497,119689.56824416736,106831.79430148534,171910.64171917934,153726.60353500885,TASK2
2026-05-26T09:24:56.812+00:00,1413,108188,107350.1312554039,108340.87232838539,138379.94049548393,101490.64379818962,119686.68486913263,106832.33074335226,171909.90411161233,153726.1341483753,TASK2
2026-05-26T09:24:56.812+00:00,1413,108189,107349.9300897038,108343.55453772003,138370.88803897955,101496.27643779236,119685.41081969868,106834.74473175342,171909.1665040453,153724.32365707442,TASK2
2026-05-26T09:24:56.812+00:00,1413,108190,107350.46653157074,108347.04140985505,138362.908466209,101502.71374019548,119685.67904063214,106836.62227828767,171909.43472497878,153725.9329826752,TASK2
2026-05-26T09:24:56.812+00:00,1413,108191,107349.7289240037,108348.11429358891,138353.31956783767,101507.80993793129,119685.47787493204,106838.49982482192,171907.89245461134,153724.65893324124,TASK2
2026-05-26T09:24:56.812+00:00,1413,108192,107349.52775830361,108349.7236191897,138344.53533226674,101511.83325193325,119687.62364239975,106838.49982482192,171911.3793267464,153725.46359604163,TASK2
2026-05-26T09:24:56.812+00:00,1413,108193,107348.52192980313,108349.7236191897,138337.36042229657,101514.51546126789,119687.89186333322,106837.7622172549,171913.5250942141,153724.45776754114,TASK2
2026-05-26T09:24:56.812+00:00,1413,108194,107347.7843222361,108347.64490695535,138328.57618672564,101515.32012406828,119687.89186333322,106839.10332192222,171912.25104478013,153722.64727624028,TASK2
2026-05-26T09:24:56.812+00:00,1413,108195,107346.51027280214,108347.44374125525,138319.7919511547,101518.00233340291,119686.3495929658,106842.59019405724,171912.5192657136,153723.1837181072,TASK2
2026-05-26T09:24:56.812+00:00,1413,108196,107345.77266523513,108346.70613368823,138312.3488202511,101519.34343807022,119686.88603483273,106842.12080742368,171913.86037038092,153725.06126464144,TASK2
2026-05-26T09:24:56.812+00:00,1413,108197,107346.30910710205,108350.19300582325,138307.85611961558,101524.97607767297,119686.88603483273,106843.99835395793,171915.73791691515,153725.86592744183,TASK2
2026-05-26T09:24:56.812+00:00,1413,108198,107347.11376990244,108354.48454075867,138300.41298871196,101531.14515914263,119687.69069763312,106846.94878422603,171919.76123091712,153729.0845786434,TASK2
2026-05-26T09:24:56.812+00:00,1413,108199,107346.64438326888,108355.0209826256,138292.4334159414,101534.90025221113,119689.03180230044,106848.02166795988,171922.44344025175,153729.8892414438,TASK2
2026-05-26T09:24:56.812+00:00,1413,108200,107346.64438326888,108354.8198169255,138284.1856222374,101539.72822901348,119689.83646510083,106849.89921449413,171923.24810305214,153727.00586640905,TASK2
2026-05-26T09:24:56.812+00:00,1413,108201,107346.17499663532,108354.6186512254,138273.25561919875,101542.14221741464,119687.75775286648,106849.89921449413,171920.90116988434,153722.51316577353,TASK2
2026-05-26T09:24:56.812+00:00,1413,108202,107346.71143850224,108355.4233140258,138264.7396045613,101545.3608686162,119688.02597379994,106851.24031916144,171921.70583268473,153722.51316577353,TASK2
2026-05-26T09:24:56.812+00:00,1413,108203,107346.71143850224,108356.49619775965,138257.0282527242,101548.3112988843,119690.17174126765,106852.58142382877,171922.7787164186,153724.65893324124,TASK2
2026-05-26T09:24:56.812+00:00,1413,108204,107346.51027280214,108357.03263962657,138248.24401715328,101550.99350821895,119690.97640406805,106852.38025812867,171920.96822511771,153723.92132567422,TASK2
2026-05-26T09:24:56.812+00:00,1413,108205,107345.77266523513,108356.29503205956,138241.60554905006,101552.60283381972,119690.50701743449,106851.64265056164,171920.96822511771,153722.91549717373,TASK2
2026-05-26T09:24:56.812+00:00,1413,108206,107346.04088616859,108356.29503205956,138234.4306390799,101555.8214850213,119691.57990116834,106852.98375522897,171922.5775507185,153722.71433147363,TASK2
2026-05-26T09:24:56.812+00:00,1413,108207,107348.65604026985,108359.98306989468,138228.59683377706,101562.05762172432,119693.72566863605,106854.05663896282,171925.19270481975,153721.8426134399,TASK2
2026-05-26T09:24:56.812+00:00,1413,108208,107349.19248213679,108360.51951176161,138221.4219238069,101563.66694732511,119694.7985523699,106854.32485989628,171925.7291466867,153717.61813373782,TASK2
2026-05-26T09:24:56.812+00:00,1413,108209,107348.72309550323,108358.44079952726,138211.02836263517,101563.19756069154,119693.79272386941,106855.39774363014,171924.45509725274,153714.46653776962,TASK2
2026-05-26T09:24:56.812+00:00,1413,108210,107348.52192980313,108359.51368326112,138203.3170107981,101566.14799095964,119693.79272386941,106855.19657793004,171923.71748968572,153713.19248833568,TASK2
2026-05-26T09:24:56.812+00:00,1413,108211,107348.05254316957,108361.65945072882,138197.75142642873,101569.90308402813,119695.13382853674,106858.68345006506,171925.05859435303,153714.533593003,TASK2
2026-05-26T09:24:56.812+00:00,1413,108212,107349.39364783689,108364.60988099693,138193.5269467267,101573.1217352297,119696.47493320405,106859.48811286545,171926.66791995382,153716.41113953723,TASK2
2026-05-26T09:24:56.812+00:00,1413,108213,107351.53941530459,108365.95098566425,138187.9613623573,101576.87682829819,119698.08425880484,106859.48811286545,171928.00902462113,153716.6793604707,TASK2
2026-05-26T09:24:56.812+00:00,1413,108214,107353.6851827723,108365.95098566425,138182.39577798793,101579.0225957659,119701.3029100064,106858.48228436496,171930.95945488923,153716.94758140418,TASK2
2026-05-26T09:24:56.812+00:00,1413,108215,107353.6851827723,108364.94515716376,138174.9526470843,101579.0225957659,119700.56530243937,106858.28111866488,171930.75828918914,153716.20997383713,TASK2
2026-05-26T09:24:56.812+00:00,1413,108216,107353.4840170722,108364.20754959673,138166.7048533803,101579.82725856629,119702.97929084055,106858.54933959834,171931.0265101226,153717.81929943792,TASK2
2026-05-26T09:24:56.812+00:00,1413,108217,107353.4840170722,108367.69442173177,138159.79816434364,101584.65523536864,119705.92972110865,106862.57265360029,171931.83117292298,153717.81929943792,TASK2
2026-05-26T09:24:56.812+00:00,1413,108218,107354.55690080606,108370.91307293333,138153.42791717386,101590.01965403791,119705.92972110865,106862.84087453375,171930.8253444225,153716.2770290705,TASK2
2026-05-26T09:24:56.812+00:00,1413,108219,107356.4344473403,108374.13172413489,138147.59411187103,101595.38407270718,119708.61193044328,106865.79130480185,171934.84865842445,153720.56856400592,TASK2
2026-05-26T09:24:56.812+00:00,1413,108220,107356.70266827376,108375.74104973568,138140.41920190086,101601.28493324338,119711.29413977792,106867.6688513361,171937.26264682563,153724.32365707442,TASK2
2026-05-26T09:24:56.812+00:00,1413,108221,107356.97088920724,108377.08215440299,138132.97607099725,101605.04002631188,119711.09297407782,106869.00995600341,171935.45215552475,153722.781386707,TASK2
2026-05-26T09:24:56.812+00:00,1413,108222,107357.77555200762,108378.69148000378,138124.19183542632,101609.06334031383,119711.89763687822,106872.76504907191,171938.13436485938,153723.85427044085,TASK2
2026-05-26T09:24:56.812+00:00,1413,108223,107359.65309854186,108381.91013120534,138117.5533673231,101614.15953804964,119713.77518341246,106875.44725840655,171941.08479512748,153727.3411425759,TASK2
2026-05-26T09:24:56.812+00:00,1413,108224,107359.65309854186,108385.39700334036,138106.8915852179,101618.1828520516,119712.76935491197,106878.12946774118,171940.34718756046,153726.87175594232,TASK2
2026-05-26T09:24:56.812+00:00,1413,108225,107359.1837119083,108387.00632894115,138095.6933612458,101621.9379451201,119712.56818921187,106878.39768867464,171939.34135905997,153725.86592744183,TASK2
2026-05-26T09:24:56.812+00:00,1413,108226,107359.9883747087,108388.61565454192,138087.98200940873,101625.15659632167,119714.44573574612,106880.00701427543,171939.60957999344,153726.40236930875,TASK2
2026-05-26T09:24:56.812+00:00,1413,108227,107362.13414217641,108391.8343057435,138082.14820410588,101629.98457312402,119716.85972414729,106882.15278174313,171942.02356839462,153727.20703210915,TASK2
2026-05-26T09:24:56.812+00:00,1413,108228,107364.54813057758,108393.9800732112,138076.04617786958,101634.81254992636,119720.34659628232,106884.56677014432,171946.04688239656,153730.15746237725,TASK2
2026-05-26T09:24:56.812+00:00,1413,108229,107366.69389804528,108395.85761974545,138067.53016323212,101638.03120112792,119721.41948001618,106885.3714329447,171946.58332426348,153731.76678797803,TASK2
2026-05-26T09:24:56.812+00:00,1413,108230,107367.76678177915,108399.07627094701,138059.01414859464,101642.32273606335,119723.02880561695,106887.5172004124,171948.19264986427,153734.18077637922,TASK2
2026-05-26T09:24:56.812+00:00,1413,108231,107369.64432831338,108401.22203841472,138051.8392386245,101646.07782913183,119725.44279401813,106889.66296788013,171950.0701963985,153734.9854391796,TASK2
2026-05-26T09:24:56.812+00:00,1413,108232,107371.25365391417,108403.36780588243,138042.51856118662,101650.10114313378,119727.05211961891,106891.00407254744,171950.8748591989,153734.24783161256,TASK2
2026-05-26T09:24:56.812+00:00,1413,108233,107372.86297951496,108408.46400361824,138034.00254654916,101655.46556180307,119729.46610802009,106892.61339814823,171951.94774293277,153733.2420031121,TASK2
2026-05-26T09:24:56.812+00:00,1413,108234,107378.0932877175,108416.57768685551,138027.90052031286,101663.6463002737,119733.62353248877,106898.84953485125,171955.9710569347,153735.79010198,TASK2
2026-05-26T09:24:56.812+00:00,1413,108235,107378.89795051789,108417.11412872245,138018.57984287498,101665.52384680795,119733.62353248877,106904.21395352052,171955.2334493677,153736.86298571384,TASK2
2026-05-26T09:24:56.812+00:00,1413,108236,107378.89795051789,108417.91879152284,138009.79560730406,101667.13317240874,119733.89175342224,106905.28683725437,171954.2276208672,153738.74053224808,TASK2
2026-05-26T09:24:56.812+00:00,1413,108237,107381.0437179856,108421.67388459132,138003.4253601343,101671.42470734415,119737.1104046238,106909.31015125633,171955.83694646799,153742.49562531657,TASK2
2026-05-26T09:24:56.812+00:00,1413,108238,107384.26236918716,108424.0878729925,137997.05511296453,101674.64335854571,119741.13371862576,106912.26058152443,171958.25093486917,153744.90961371775,TASK2
2026-05-26T09:24:56.812+00:00,1413,108239,107384.79881105409,108425.42897765982,137987.4662145932,101678.13023068075,119742.47482329307,106913.33346525829,171960.39670233688,153747.05538118546,TASK2
2026-05-26T09:24:56.812+00:00,1413,108240,107384.32942442053,108424.42314915932,137976.80443248802,101680.81244001538,119743.01126516,106914.67456992561,171962.81069073806,153746.58599455192,TASK2
2026-05-26T09:24:56.812+00:00,1413,108241,107384.59764535399,108423.41732065885,137967.2155341167,101684.29931215041,119745.96169542811,106917.89322112717,171967.90688847387,153747.65887828576,TASK2
2026-05-26T09:24:56.812+00:00,1413,108242,107385.9387500213,108421.3386084245,137962.4546125477,101688.32262615237,119751.32611409738,106918.4296629941,171977.56284207854,153753.82795975544,TASK2
2026-05-26T09:24:56.812+00:00,1413,108243,107387.5480756221,108425.093701493,137955.27970257757,101693.9552657551,119754.27654436548,106921.91653512913,171979.17216767932,153755.70550628967,TASK2
2026-05-26T09:24:56.812+00:00,1413,108244,107382.7871540531,108430.45812016226,137936.57129246846,101691.34011165383,119746.02875066147,106921.44714849557,171963.6824087718,153742.36151484985,TASK2
2026-05-26T09:24:56.812+00:00,1413,108245,107377.75801155067,108429.72051259523,137918.93576609323,101688.45673661909,119738.58561975785,106917.22266879352,171951.41130106585,153730.89506994426,TASK2
2026-05-26T09:24:56.812+00:00,1413,108246,107375.41107838287,108431.06161726256,137909.61508865538,101694.62581808877,119738.38445405776,106919.90487812815,171952.21596386624,153730.89506994426,TASK2
2026-05-26T09:24:56.812+00:00,1413,108247,107374.94169174929,108431.59805912948,137898.68508561671,101695.69870182262,119736.30574182341,106919.90487812815,171950.94191443227,153729.0845786434,TASK2
2026-05-26T09:24:56.812+00:00,1413,108248,107375.74635454969,108430.592230629,137889.9008500458,101697.03980648993,119736.30574182341,106919.16727056113,171953.08768189998,153729.8892414438,TASK2
2026-05-26T09:24:56.812+00:00,1413,108249,107376.01457548315,108430.3910649289,137882.18949820873,101701.06312049189,119737.9150674242,106921.04481709538,171957.3792168354,153732.0350089115,TASK2
2026-05-26T09:24:56.812+00:00,1413,108250,107375.27696791613,108429.11701549495,137872.3323789039,101702.67244609266,119739.52439302497,106922.38592176269,171958.7203215027,153734.9854391796,TASK2
2026-05-26T09:24:56.812+00:00,1413,108251,107374.5393603491,108429.92167829533,137863.2799223995,101705.3546554273,119741.40193955922,106924.5316892304,171959.79320523658,153736.86298571384,TASK2
2026-05-26T09:24:57.238+00:00,1414,108252,107374.80758128257,108430.99456202918,137856.10501242935,101708.3050856954,119742.47482329307,106925.60457296425,171960.86608897042,153734.51605254604,TASK2
2026-05-26T09:24:57.238+00:00,1414,108253,107374.60641558247,108432.06744576304,137847.05255592495,101711.25551596351,119742.00543665951,106928.28678229889,171960.86608897042,153732.16911937823,TASK2
2026-05-26T09:24:57.238+00:00,1414,108254,107374.13702894891,108433.67677136383,137838.268320354,101713.66950436468,119741.26782909248,106930.16432883314,171960.1284814034,153730.89506994426,TASK2
2026-05-26T09:24:57.238+00:00,1414,108255,107374.13702894891,108434.48143416422,137829.21586384962,101716.08349276586,119741.53605002596,106930.4325497666,171959.65909476986,153732.2361746116,TASK2
2026-05-26T09:24:57.238+00:00,1414,108256,107374.40524988237,108435.28609696461,137817.2129770771,101717.9610393001,119741.80427095942,106930.70077070006,171959.9273157033,153732.2361746116,TASK2
2026-05-26T09:24:57.238+00:00,1414,108257,107374.20408418227,108436.090759765,137804.4054275042,101719.30214396742,119740.79844245892,106930.2313840665,171958.3850453359,153730.6939042442,TASK2
2026-05-26T09:24:57.238+00:00,1414,108258,107375.81340978305,108435.08493126452,137795.62119193329,101721.17969050167,119740.59727675882,106933.1818143346,171959.18970813628,153730.22451761062,TASK2
2026-05-26T09:24:57.238+00:00,1414,108259,107377.15451445038,108435.08493126452,137788.17806102967,101724.13012076977,119742.74304422653,106935.05936086885,171959.7261500032,153730.76095947754,TASK2
2026-05-26T09:24:57.238+00:00,1414,108260,107376.68512781682,108435.35315219797,137776.71161612408,101726.54410917094,119742.27365759297,106933.24886956796,171958.45210056927,153727.60936350934,TASK2
2026-05-26T09:24:57.238+00:00,1414,108261,107377.22156968374,108437.76714059914,137766.85449681932,101730.83564410635,119742.27365759297,106933.51709050144,171958.25093486917,153725.26243034154,TASK2
2026-05-26T09:24:57.238+00:00,1414,108262,107376.75218305018,108438.30358246608,137759.41136591567,101733.24963250753,119744.15120412722,106934.05353236836,171958.25093486917,153722.3790553068,TASK2
2026-05-26T09:24:57.238+00:00,1414,108263,107374.94169174929,108437.29775396558,137750.3589094113,101733.517853441,119742.87715469327,106932.24304106749,171957.7815482356,153719.2274593386,TASK2
2026-05-26T09:24:57.238+00:00,1414,108264,107374.20408418227,108437.29775396558,137742.6475575742,101734.8589581083,119742.40776805971,106930.96899163353,171959.65909476986,153720.8367849394,TASK2
2026-05-26T09:24:57.238+00:00,1414,108265,107376.08163071652,108440.31523946705,137733.66215630318,101739.48576921056,119744.15120412722,106935.32758180231,171963.54829830508,153724.793043708,TASK2
2026-05-26T09:24:57.238+00:00,1414,108266,107376.34985164998,108442.46100693477,137725.41436259917,101742.9726413456,119743.68181749366,106936.66868646962,171963.81651923852,153725.3294855749,TASK2
2026-05-26T09:24:57.238+00:00,1414,108267,107376.34985164998,108440.65051563388,137717.97123169556,101744.31374601291,119745.82758496137,106934.32175330182,171964.084740172,153726.1341483753,TASK2
2026-05-26T09:24:57.238+00:00,1414,108268,107376.34985164998,108440.44934993378,137710.25987985847,101746.45951348061,119748.50979429601,106933.31592480134,171966.76694950662,153729.62102051033,TASK2
2026-05-26T09:24:57.238+00:00,1414,108269,107377.15451445038,108443.13155926843,137701.74386522098,101751.28749028296,119748.77801522947,106935.46169226905,171967.57161230702,153730.15746237725,TASK2
2026-05-26T09:24:57.238+00:00,1414,108270,107377.15451445038,108445.81376860305,137692.6914087166,101756.11546708531,119748.57684952937,106939.485006271,171969.1809379078,153730.96212517764,TASK2
2026-05-26T09:24:57.238+00:00,1414,108271,107376.41690688334,108447.15487327038,137682.02962661142,101759.60233922034,119748.57684952937,106941.63077373871,171969.71737977472,153728.34697107636,TASK2
2026-05-26T09:24:57.238+00:00,1414,108272,107375.67929931633,108447.42309420384,137674.31827477433,101761.21166482112,119749.1132913963,106940.35672430476,171969.9856007082,153726.80470070895,TASK2
2026-05-26T09:24:57.238+00:00,1414,108273,107375.20991268277,108449.83708260501,137667.6798066711,101762.55276948844,119749.1132913963,106941.42960803861,171969.7844350081,153725.79887220846,TASK2
2026-05-26T09:24:57.238+00:00,1414,108274,107375.20991268277,108451.71462913926,137657.55446643286,101764.43031602268,119748.37568382928,106943.30715457286,171968.51038557413,153725.3294855749,TASK2
2026-05-26T09:24:57.238+00:00,1414,108275,107375.20991268277,108453.05573380658,137648.7702308619,101766.30786255693,119747.36985532878,106944.11181737325,171968.30921987406,153724.05543614094,TASK2
2026-05-26T09:24:57.238+00:00,1414,108276,107376.01457548315,108453.5921756735,137644.00930929295,101769.5265137585,119749.24740186303,106944.91648017363,171969.91854547482,153724.5918780079,TASK2
2026-05-26T09:24:57.238+00:00,1414,108277,107377.35568015047,108451.2452425057,137636.29795745586,101769.05712712494,119748.77801522947,106942.8377679393,171968.91271697433,153724.5918780079,TASK2
2026-05-26T09:24:57.238+00:00,1414,108278,107377.35568015047,108447.55720467058,137627.24550095145,101767.78307769098,119748.77801522947,106941.56371850533,171966.0293419396,153721.4402820397,TASK2
2026-05-26T09:24:57.238+00:00,1414,108279,107377.15451445038,108446.55137617009,137619.53414911436,101769.39240329176,119748.77801522947,106941.56371850533,171963.6824087718,153718.8251279384,TASK2
2026-05-26T09:24:57.238+00:00,1414,108280,107377.42273538384,108445.81376860305,137610.74991354343,101772.0746126264,119750.92378269718,106942.6366022392,171964.21885063872,153718.8251279384,TASK2
2026-05-26T09:24:57.238+00:00,1414,108281,107377.6909563173,108444.80794010258,137603.30678263982,101773.68393822719,119751.99666643103,106944.24592783998,171964.01768493862,153719.36156980533,TASK2
2026-05-26T09:24:57.238+00:00,1414,108282,107375.61224408296,108445.61260290295,137593.18144240158,101774.2203800941,119751.99666643103,106943.77654120642,171964.55412680557,153719.36156980533,TASK2
2026-05-26T09:24:57.238+00:00,1414,108283,107375.41107838287,108447.22192850374,137584.39720683065,101776.36614756181,119754.4106548322,106945.92230867413,171966.4316733398,153720.70267447265,TASK2
2026-05-26T09:24:57.238+00:00,1414,108284,107375.67929931633,108449.36769597145,137575.07652939277,101779.85301969685,119755.2153176326,106948.06807614183,171968.0409989406,153721.50733727304,TASK2
2026-05-26T09:24:57.238+00:00,1414,108285,107374.94169174929,108449.63591690491,137562.53720075334,101781.99878716456,119754.2094891321,106946.79402670788,171970.1867664083,153722.5802210069,TASK2
2026-05-26T09:24:57.238+00:00,1414,108286,107374.87463651593,108451.51346343916,137552.94830238202,101786.08915639987,119754.34359959884,106951.62200351023,171970.9914292087,153723.11666287383,TASK2
2026-05-26T09:24:57.238+00:00,1414,108287,107373.86880801544,108453.3910099734,137543.3594040107,101788.50314480104,119753.33777109835,106954.84065471179,171970.7902635086,153720.50150877255,TASK2
2026-05-26T09:24:57.238+00:00,1414,108288,107372.59475858149,108453.65923090687,137534.03872657282,101790.38069133529,119751.79550073094,106954.84065471179,171969.51621407463,153719.2274593386,TASK2
2026-05-26T09:24:57.238+00:00,1414,108289,107372.12537194793,108454.1956727738,137526.05915380229,101791.99001693608,119753.67304726518,106955.91353844565,171969.31504837453,153719.76390120553,TASK2
2026-05-26T09:24:57.238+00:00,1414,108290,107374.80758128257,108454.46389370726,137520.22534849946,101794.13578440378,119756.35525659983,106957.25464311297,171969.85149024148,153719.294514572,TASK2
2026-05-26T09:24:57.238+00:00,1414,108291,107374.33819464901,108454.46389370726,137511.4411129285,101796.01333093803,119756.62347753329,106957.52286404643,171968.5774408075,153718.02046513802,TASK2
2026-05-26T09:24:57.238+00:00,1414,108292,107370.11371494696,108452.11696053945,137498.90178428908,101795.54394430447,119754.27654436548,106955.17593087863,171964.6211820389,153714.06420636942,TASK2
2026-05-26T09:24:57.238+00:00,1414,108293,107370.38193588042,108451.37935297244,137490.92221151854,101797.68971177218,119755.61764903279,106954.4383233116,171963.61535353842,153713.59481973588,TASK2
2026-05-26T09:24:57.238+00:00,1414,108294,107373.06414521506,108453.25689950667,137482.67441781453,101800.90836297374,119758.29985836743,106953.96893667804,171965.49290007268,153713.39365403578,TASK2
2026-05-26T09:24:57.238+00:00,1414,108295,107375.47813361623,108455.13444604092,137474.694845044,101802.24946764106,119759.37274210129,106953.96893667804,171967.90688847387,153712.9242674022,TASK2
2026-05-26T09:24:57.238+00:00,1414,108296,107376.01457548315,108455.13444604092,137468.86103974114,101804.1270141753,119759.17157640119,106954.77359947843,171968.1751094073,153711.11377610132,TASK2
2026-05-26T09:24:57.238+00:00,1414,108297,107376.28279641662,108454.66505940736,137461.686129771,101806.27278164301,119759.17157640119,106956.65114601268,171966.36461810643,153710.91261040122,TASK2
2026-05-26T09:24:57.238+00:00,1414,108298,107376.08163071652,108455.46972220775,137451.29256859928,101809.49143284459,119760.5126810685,106959.3333553473,171965.89523147288,153712.521936002,TASK2
2026-05-26T09:24:57.238+00:00,1414,108299,107376.88629351692,108456.00616407467,137441.16722836104,101812.17364217922,119763.19489040315,106957.52286404643,171966.4316733398,153712.05254936847,TASK2
2026-05-26T09:24:57.238+00:00,1414,108300,107377.42273538384,108457.61548967546,137432.38299279008,101815.12407244732,119764.267774137,106960.20507338106,171966.2305076397,153712.05254936847,TASK2
2026-05-26T09:24:57.238+00:00,1414,108301,107376.68512781682,108459.22481527625,137423.06231535223,101817.53806084848,119762.72550376959,106965.8377129838,171965.49290007268,153713.1254331023,TASK2
2026-05-26T09:24:57.238+00:00,1414,108302,107375.94752024979,108460.83414087702,137414.54630071475,101820.75671205006,119762.25611713601,106968.25170138497,171967.37044660692,153715.27120057002,TASK2
2026-05-26T09:24:57.238+00:00,1414,108303,107375.74635454969,108460.36475424346,137405.2256232769,101822.09781671737,119761.25028863554,106966.97765195102,171966.36461810643,153713.46070926913,TASK2
2026-05-26T09:24:57.238+00:00,1414,108304,107374.7405260492,108461.16941704386,137395.3685039721,101825.31646791894,119758.09869266734,106968.05053568487,171966.16345240633,153712.1866598352,TASK2
2026-05-26T09:24:57.238+00:00,1414,108305,107374.00291848218,108462.77874264463,137386.3160474677,101828.5351191205,119756.28820136645,106968.05053568487,171966.4316733398,153710.10794760083,TASK2
2026-05-26T09:24:57.238+00:00,1414,108306,107375.34402314949,108464.65628917888,137378.87291656408,101833.6313168563,119758.1657479007,106969.92808221912,171966.69989427328,153709.3703400338,TASK2
2026-05-26T09:24:57.238+00:00,1414,108307,107374.33819464901,108464.45512347878,137371.9662275274,101836.31352619095,119760.57973630188,106969.72691651902,171966.96811520672,153706.4869649991,TASK2
2026-05-26T09:24:57.238+00:00,1414,108308,107374.33819464901,108463.98573684522,137363.98665475685,101838.72751459212,119761.65262003573,106969.25752988546,171965.4258448393,153702.26248529702,TASK2
2026-05-26T09:24:57.238+00:00,1414,108309,107375.14285744939,108464.52217871216,137356.54352385324,101841.67794486022,119760.1103496683,106972.47618108703,171964.42001633882,153698.5744474619,TASK2
2026-05-26T09:24:57.238+00:00,1414,108310,107375.94752024979,108466.93616711332,137349.63683481654,101844.8965960618,119761.7196752691,106975.42661135513,171965.2246791392,153699.9155521292,TASK2
2026-05-26T09:24:57.238+00:00,1414,108311,107376.68512781682,108470.42303924834,137344.8088580142,101850.3951251978,119766.01121020451,106979.18170442362,171968.4433303408,153703.40242426426,TASK2
2026-05-26T09:24:57.238+00:00,1414,108312,107375.94752024979,108470.42303924834,137336.82928524364,101853.07733453243,119766.54765207144,106979.18170442362,171968.9797722077,153703.20125856416,TASK2
2026-05-26T09:24:57.238+00:00,1414,108313,107375.20991268277,108469.68543168133,137328.0450496727,101853.07733453243,119767.88875673876,106981.32747189133,171970.05265594157,153703.4694794976,TASK2
2026-05-26T09:24:57.238+00:00,1414,108314,107376.55101735008,108469.21604504777,137321.9430234364,101854.41843919976,119770.03452420646,106983.20501842558,171971.9302024758,153704.274142298,TASK2
2026-05-26T09:24:57.238+00:00,1414,108315,107378.16034295087,108469.48426598123,137313.6952297324,101856.83242760092,119771.37562887378,106983.47323935904,171974.07596994351,153705.34702603187,TASK2
2026-05-26T09:24:57.238+00:00,1414,108316,107376.61807258344,108470.82537064854,137303.03344762724,101859.51463693556,119771.1744631737,106984.00968122597,171974.344190877,153705.61524696532,TASK2
2026-05-26T09:24:57.238+00:00,1414,108317,107375.88046501642,108472.97113811625,137295.05387485668,101861.66040440327,119770.9732974736,106984.54612309289,171974.8806327439,153706.95635163266,TASK2
2026-05-26T09:24:57.238+00:00,1414,108318,107374.60641558247,108471.96530961577,137284.3920927515,101860.92279683624,119768.89458523925,106983.54029459241,171972.26547864263,153703.00009286407,TASK2
2026-05-26T09:24:57.238+00:00,1414,108319,107373.06414521506,108471.76414391567,137274.26675251324,101861.1910177697,119768.15697767222,106983.33912889232,171969.91854547482,153702.26248529702,TASK2
2026-05-26T09:24:57.238+00:00,1414,108320,107373.06414521506,108474.17813231684,137268.43294721041,101865.75077363859,119771.10740794032,106985.21667542655,171972.86897574292,153706.0175783655,TASK2
2026-05-26T09:24:57.238+00:00,1414,108321,107373.60058708198,108475.2510160507,137262.5991419076,101870.8469713744,119772.98495447457,106988.16710569465,171979.30627814605,153712.7231017021,TASK2
2026-05-26T09:24:57.238+00:00,1414,108322,107373.39942138188,108474.78162941714,137251.9373598024,101871.11519230786,119773.25317540803,106988.97176849504,171979.30627814605,153712.9913226356,TASK2
2026-05-26T09:24:57.238+00:00,1414,108323,107373.19825568178,108473.50757998318,137242.0802404976,101870.37758474084,119772.24734690755,106988.97176849504,171974.2771356436,153705.81641266542,TASK2
2026-05-26T09:24:57.238+00:00,1414,108324,107370.58310158052,108473.03819334962,137231.41845839244,101870.17641904074,119768.82753000587,106988.97176849504,171971.3937606089,153698.90972362875,TASK2
2026-05-26T09:24:57.238+00:00,1414,108325,107369.0408312131,108473.30641428308,137221.56133908764,101871.2493027746,119767.8217015054,106990.31287316237,171970.11971117492,153696.5627904609,TASK2
2026-05-26T09:24:57.238+00:00,1414,108326,107368.57144457953,108472.03236484913,137214.11820818402,101871.51752370805,119767.35231487184,106989.03882372842,171970.11971117492,153696.5627904609,TASK2
2026-05-26T09:24:57.238+00:00,1414,108327,107368.10205794597,108470.75831541518,137207.4797400808,101873.12684930884,119767.6205358053,106988.03299522793,171970.11971117492,153698.1721160617,TASK2
2026-05-26T09:24:57.238+00:00,1414,108328,107366.82800851202,108472.36764101597,137198.69550450987,101877.68660517772,119767.4193701052,106990.71520456256,171971.1925949088,153700.3178835294,TASK2
2026-05-26T09:24:57.238+00:00,1414,108329,107366.62684281192,108475.31807128407,137192.3252573401,101882.51458198007,119766.68176253817,106994.47029763105,171974.1430251769,153704.0729765979,TASK2
2026-05-26T09:24:57.238+00:00,1414,108330,107368.23616841271,108476.92739688484,137185.4185683034,101886.80611691548,119770.1686346732,106997.68894883261,171977.6298973119,153706.2187440656,TASK2
2026-05-26T09:24:57.238+00:00,1414,108331,107368.23616841271,108479.07316435255,137176.90255366595,101890.02476811706,119771.50973934052,107000.63937910071,171980.58032758,153707.023406866,TASK2
2026-05-26T09:24:57.238+00:00,1414,108332,107367.76678177915,108479.34138528602,137167.85009716154,101891.09765185091,119772.04618120745,107001.17582096765,171980.37916187992,153708.6327324668,TASK2
2026-05-26T09:24:57.238+00:00,1414,108333,107366.4927323452,108476.9944521182,137159.87052439098,101889.28716055003,119772.04618120745,106998.82888779984,171977.76400777863,153705.21291556512,TASK2
2026-05-26T09:24:57.238+00:00,1414,108334,107367.02917421212,108475.18396081733,137153.23205628776,101888.01311111607,119774.72839054208,106995.9455127651,171976.22173741122,153703.93886613118,TASK2
2026-05-26T09:24:57.238+00:00,1414,108335,107365.75512477817,108475.18396081733,137144.98426258375,101887.00728261558,119773.7225620416,106999.7006058336,171975.4841298442,153705.01174986502,TASK2
2026-05-26T09:24:57.238+00:00,1414,108336,107363.94463347728,108475.98862361773,137135.6635851459,101887.81194541598,119772.44851260765,107001.30993143437,171973.1371966764,153702.9330376307,TASK2
2026-05-26T09:24:57.238+00:00,1414,108337,107362.40236310987,108475.78745791763,137126.07468677458,101887.34255878242,119772.24734690755,107000.3041029339,171972.39958910938,153700.85432539636,TASK2
2026-05-26T09:24:57.238+00:00,1414,108338,107362.60352880997,108477.1956178183,137119.77149483818,101888.48249774963,119771.91207074071,107000.3041029339,171971.99725770918,153700.78727016298,TASK2
2026-05-26T09:24:57.238+00:00,1414,108339,107361.86592124295,108477.1956178183,137111.79192206764,101888.48249774963,119772.44851260765,107000.1029372338,171972.80192050958,153700.04966259596,TASK2
2026-05-26T09:24:57.238+00:00,1414,108340,107362.67058404333,108478.53672248563,137105.1534539644,101888.28133204953,119775.13072194227,107003.0533675019,171976.55701357804,153702.19543006367,TASK2
2026-05-26T09:24:57.238+00:00,1414,108341,107362.20119740977,108478.53672248563,137096.90566026038,101884.32507328095,119776.74004754306,107001.51109713447,171978.4345601123,153703.00009286407,TASK2
2026-05-26T09:24:57.238+00:00,1414,108342,107361.73181077621,108476.18978931782,137087.853203756,101879.02770984505,119775.46599810911,106998.62772209974,171977.6969525453,153703.80475566446,TASK2
2026-05-26T09:24:57.238+00:00,1414,108343,107361.53064507611,108476.72623118474,137079.33718911852,101876.41255574377,119775.26483240901,106999.96882676706,171977.4957868452,153707.023406866,TASK2
2026-05-26T09:24:57.238+00:00,1414,108344,107361.32947937601,108476.72623118474,137070.28473261412,101874.06562257596,119774.79544577545,107001.8463733013,171978.30044964558,153708.90095340027,TASK2
2026-05-26T09:24:57.238+00:00,1414,108345,107360.86009274246,108476.9944521182,137062.30515984358,101870.91402660776,119774.05783820842,107003.72391983555,171979.6415543129,153710.7784999345,TASK2
2026-05-26T09:24:57.238+00:00,1414,108346,107361.12831367592,108476.52506548465,137053.7891452061,101865.08022130493,119774.86250100881,107004.52858263595,171982.05554271405,153712.11960460182,TASK2
2026-05-26T09:24:57.238+00:00,1414,108347,107362.46941834324,108477.06150735158,137046.8824561694,101860.31929973594,119774.86250100881,107007.21079197057,171982.86020551444,153711.91843890172,TASK2
2026-05-26T09:24:57.238+00:00,1414,108348,107361.73181077621,108478.4026120189,137040.51220899966,101853.41261069926,119774.66133530872,107008.01545477097,171980.7814932801,153709.8397266674,TASK2
2026-05-26T09:24:57.238+00:00,1414,108349,107362.00003170967,108478.2014463188,137033.06907809604,101844.8965960618,119773.9237277417,107004.32741693585,171976.2887926446,153705.0788050984,TASK2
2026-05-26T09:24:57.238+00:00,1414,108350,107362.5364735766,108477.46383875178,137023.21195879125,101836.64880235778,119772.9178992412,107003.85803030228,171970.72320827522,153698.1721160617,TASK2
2026-05-26T09:24:57.238+00:00,1414,108351,107364.14579917738,108477.73205968524,137015.2323860207,101832.42432265573,119773.18612017467,107006.00379777,171967.8398332405,153696.09340382737,TASK2
2026-05-26T09:24:57.594+00:00,1415,108352,107364.68224104431,108478.0002806187,137009.1303597844,101829.00450575407,119773.99078297506,107006.54023963692,171967.37044660692,153696.89806662776,TASK2
2026-05-26T09:24:57.594+00:00,1415,108353,107364.21285441075,108478.80494341909,136999.80968234653,101823.97536325162,119773.99078297506,107007.61312337077,171967.37044660692,153696.69690092767,TASK2
2026-05-26T09:24:57.594+00:00,1415,108354,107364.01168871066,108479.07316435255,136992.6347723764,101818.40977888225,119775.60010857583,107008.1495652377,171966.09639717298,153695.4228514937,TASK2
2026-05-26T09:24:57.594+00:00,1415,108355,107364.54813057758,108480.41426901988,136985.99630427317,101814.45352011366,119777.74587604355,107012.17287923966,171968.7786065076,153698.3732817618,TASK2
2026-05-26T09:24:57.594+00:00,1415,108356,107362.20119740977,108480.41426901988,136975.33452216798,101806.74216827659,119777.54471034346,107013.24576297351,171970.11971117492,153698.1721160617,TASK2
2026-05-26T09:24:57.594+00:00,1415,108357,107362.20119740977,108482.56003648759,136967.89139126436,101801.1765839072,119776.00243997603,107015.65975137468,171972.5336995761,153698.70855792865,TASK2
2026-05-26T09:24:57.594+00:00,1415,108358,107361.73181077621,108482.56003648759,136961.5211440946,101797.22032513862,119776.2706609095,107017.80551884239,171973.3383623765,153698.23917129508,TASK2
2026-05-26T09:24:57.594+00:00,1415,108359,107362.00003170967,108482.35887078749,136954.88267599136,101794.60517103734,119775.53305334247,107017.33613220883,171973.60658330997,153695.6240171938,TASK2
2026-05-26T09:24:57.594+00:00,1415,108360,107361.53064507611,108482.62709172095,136947.1713241543,101793.86756347032,119772.38145737427,107015.52564090794,171970.9914292087,153689.79021189097,TASK2
2026-05-26T09:24:57.594+00:00,1415,108361,107359.72015377524,108482.42592602085,136936.7777629826,101791.52063030252,119769.49808233955,107015.05625427439,171967.8398332405,153684.76106938854,TASK2
2026-05-26T09:24:57.594+00:00,1415,108362,107358.71432527475,108481.1518765869,136928.52996927858,101787.027929667,119768.49225383905,107013.78220484043,171967.8398332405,153682.41413622073,TASK2
2026-05-26T09:24:57.594+00:00,1415,108363,107358.51315957465,108480.1460480864,136920.0139546411,101781.46234529762,119769.83335850637,107011.43527167263,171967.10222567347,153683.21879902112,TASK2
2026-05-26T09:24:57.594+00:00,1415,108364,107358.31199387455,108478.06733585207,136911.76616093708,101776.96964466211,119772.24734690755,107010.69766410561,171968.1751094073,153684.82812462188,TASK2
2026-05-26T09:24:57.594+00:00,1415,108365,107359.3848776084,108477.86617015197,136906.2005765677,101772.74516496006,119773.05200970793,107011.77054783946,171970.5890978085,153688.31499675693,TASK2
2026-05-26T09:24:57.594+00:00,1415,108366,107359.3848776084,108479.74371668621,136899.02566659756,101771.73933645956,119770.70507654012,107017.13496650873,171973.80774901004,153694.75229916006,TASK2
2026-05-26T09:24:57.594+00:00,1415,108367,107358.11082817445,108481.08482135354,136891.04609382703,101773.61688299381,119770.70507654012,107019.28073397644,171975.95351647778,153700.38493876279,TASK2
2026-05-26T09:24:57.594+00:00,1415,108368,107357.37322060742,108482.15770508739,136884.4076257238,101776.83553419537,119772.85084400783,107020.3536177103,171975.95351647778,153703.3353690309,TASK2
2026-05-26T09:24:57.594+00:00,1415,108369,107357.50733107416,108484.90696965539,136879.311427988,101782.06584239792,119775.93538474267,107024.30987647889,171979.50744384615,153707.6269039663,TASK2
2026-05-26T09:24:57.594+00:00,1415,108370,107358.31199387455,108485.71163245579,136874.0140645521,101787.16204013373,119777.81293127692,107025.91920207968,171981.65321131388,153708.69978770017,TASK2
2026-05-26T09:24:57.594+00:00,1415,108371,107357.842607241,108484.97402488875,136865.76627084808,101790.64891226876,119777.61176557682,107026.18742301314,171979.842720013,153706.0846335989,TASK2
2026-05-26T09:24:57.594+00:00,1415,108372,107355.76389500665,108486.31512955607,136855.90915154328,101793.59934253687,119774.99661147555,107027.26030674699,171975.35001937748,153699.9826073626,TASK2
2026-05-26T09:24:57.594+00:00,1415,108373,107354.4898455727,108488.46089702379,136847.12491597235,101798.4273193392,119774.25900390852,107030.21073701509,171973.27130714312,153696.026348594,TASK2
2026-05-26T09:24:57.594+00:00,1415,108374,107353.4840170722,108490.07022262456,136837.26779666755,101801.91419147424,119772.7167335411,107030.21073701509,171972.5336995761,153692.0700898254,TASK2
2026-05-26T09:24:57.594+00:00,1415,108375,107355.62978453991,108491.14310635842,136831.70221229817,101805.66928454272,119774.05783820842,107029.74135038153,171975.75235077768,153691.06426132494,TASK2
2026-05-26T09:24:57.594+00:00,1415,108376,107355.89800547338,108491.67954822535,136827.20951166266,101812.64302881277,119778.61759407731,107033.49644345001,171984.3354206485,153696.16045906075,TASK2
2026-05-26T09:24:57.594+00:00,1415,108377,107356.4344473403,108494.89819942691,136820.8392644929,101818.27566841552,119781.29980341194,107038.32442025236,171988.35873465045,153696.9651218611,TASK2
2026-05-26T09:24:57.594+00:00,1415,108378,107356.2332816402,108494.69703372681,136809.10459865385,101814.85585151386,119778.41642837721,107035.7092661511,171977.16051067834,153687.3762234898,TASK2
2026-05-26T09:24:57.594+00:00,1415,108379,107354.15456940586,108493.1547633594,136797.10171188138,101811.4360346122,119776.60593707633,107033.36233298329,171969.9856007082,153682.07886005388,TASK2
2026-05-26T09:24:57.594+00:00,1415,108380,107355.76389500665,108492.9535976593,136793.95011591318,101815.45934861415,119782.50679761253,107036.3127632514,171976.42290311132,153687.44327872316,TASK2
2026-05-26T09:24:57.594+00:00,1415,108381,107359.51898807514,108493.49003952622,136794.75477871357,101823.50597661806,119789.48054188259,107041.4089609872,171984.46953111523,153695.48990672707,TASK2
2026-05-26T09:24:57.597+00:00,1415,108382,107361.66475554285,108494.56292326008,136792.40784554573,101828.87039528733,119794.5767396184,107046.50515872301,171987.15174044986,153699.7814416625,TASK2
2026-05-26T09:24:57.597+00:00,1415,108383,107363.81052301056,108492.7524319592,136786.84226117638,101830.47972088812,119798.33183268689,107047.57804245687,171985.60947008245,153702.46365099712,TASK2
2026-05-26T09:24:57.597+00:00,1415,108384,107366.22451141172,108491.47838252525,136782.8860024078,101833.69837208968,119804.2326932231,107049.45558899111,171987.75523755015,153707.023406866,TASK2
2026-05-26T09:24:57.597+00:00,1415,108385,107367.83383701251,108494.42881279335,136778.9297436392,101839.06279075895,119807.71956535811,107054.28356579345,171990.97388875173,153708.09629059987,TASK2
2026-05-26T09:24:57.597+00:00,1415,108386,107367.83383701251,108496.03813839413,136771.48661273558,101843.0861047609,119808.79244909197,107056.1611123277,171991.51033061865,153706.285799299,TASK2
2026-05-26T09:24:57.597+00:00,1415,108387,107368.10205794597,108496.3063593276,136763.7752608985,101845.23187222861,119810.66999562622,107055.9599466276,171992.85143528596,153706.8222411659,TASK2
2026-05-26T09:24:57.597+00:00,1415,108388,107368.10205794597,108498.45212679531,136757.13679279527,101846.8411978294,119812.27932122699,107057.83749316185,171993.92431901983,153706.6210754658,TASK2
2026-05-26T09:24:57.597+00:00,1415,108389,107369.17494167983,108498.72034772877,136750.49832469205,101850.32806996442,119812.27932122699,107058.37393502878,171995.53364462062,153706.15168883227,TASK2
2026-05-26T09:24:57.597+00:00,1415,108390,107371.38776438091,108499.39090006243,136746.4750106901,101854.28432873302,119813.75453636104,107058.97743212908,171997.27708068813,153706.6210754658,TASK2
2026-05-26T09:24:57.597+00:00,1415,108391,107370.11371494696,108499.39090006243,136739.5683216534,101856.16187526727,119813.28514972748,107057.70338269512,171995.46658938724,153704.274142298,TASK2
2026-05-26T09:24:57.597+00:00,1415,108392,107368.03500271261,108496.5075250277,136730.515865149,101856.16187526727,119810.93821655968,107055.3564495273,171990.97388875173,153700.58610446288,TASK2
2026-05-26T09:24:57.597+00:00,1415,108393,107367.29739514558,108496.77574596116,136722.80451331192,101858.8440846019,119811.20643749314,107054.61884196028,171988.62695558392,153698.775613162,TASK2
2026-05-26T09:24:57.597+00:00,1415,108394,107367.56561607905,108497.84862969501,136716.7024870756,101863.13561953732,119813.62042589432,107056.76460942799,171991.0409439851,153700.65315969626,TASK2
2026-05-26T09:24:57.597+00:00,1415,108395,107369.71138354676,108497.11102212798,136712.47800737357,101867.15893353928,119815.76619336203,107057.83749316185,171994.7960370536,153702.79892716397,TASK2
2026-05-26T09:24:57.597+00:00,1415,108396,107370.51604634715,108498.45212679531,136706.1077602038,101870.10936380738,119817.10729802934,107059.7150396961,171997.21002545475,153702.59776146387,TASK2
2026-05-26T09:24:57.597+00:00,1415,108397,107368.97377597973,108499.79323146262,136699.46929210058,101873.05979407547,119815.83324859539,107065.07945836536,171997.00885975466,153702.39659576377,TASK2
2026-05-26T09:24:57.597+00:00,1415,108398,107369.24199691319,108501.40255706341,136692.56260306388,101876.5466662105,119815.83324859539,107067.49344676654,171998.34996442197,153702.39659576377,TASK2
2026-05-26T09:24:57.597+00:00,1415,108399,107369.51021784666,108501.20139136331,136686.4605768276,101878.42421274475,119816.90613232924,107067.29228106645,172000.22751095623,153699.51322072902,TASK2
2026-05-26T09:24:57.597+00:00,1415,108400,107368.77261027963,108501.46961229677,136681.1632133917,101878.96065461167,119816.16852476222,107065.75001069902,171998.95346152227,153695.8251828939,TASK2
2026-05-26T09:24:57.597+00:00,1415,108401,107368.77261027963,108501.00022566321,136673.98830342153,101880.56998021246,119817.50962942954,107066.0182316325,172000.83100805653,153697.43450849468,TASK2
2026-05-26T09:24:57.597+00:00,1415,108402,107369.0408312131,108500.26261809618,136667.61805625178,101882.17930581325,119818.58251316339,107065.8170659324,172004.58610112502,153701.7260434301,TASK2
2026-05-26T09:24:57.597+00:00,1415,108403,107369.84549401348,108499.52501052916,136663.39357654972,101883.52041048056,119819.92361783072,107066.08528686585,172006.46364765926,153704.6764736982,TASK2
2026-05-26T09:24:57.597+00:00,1415,108404,107370.65015681388,108500.59789426302,136657.5597712469,101885.66617794827,119821.53294343149,107066.62172873279,172010.48696166123,153708.96800863362,TASK2
2026-05-26T09:24:57.597+00:00,1415,108405,107367.76678177915,108500.12850762946,136646.0933263413,101886.20261981519,119819.72245213062,107064.8112374319,172007.60358662647,153706.35285453236,TASK2
2026-05-26T09:24:57.597+00:00,1415,108406,107365.95629047827,108499.12267912897,136637.0408698369,101889.42127101676,119819.25306549705,107067.49344676654,172006.59775812598,153705.0788050984,TASK2
2026-05-26T09:24:57.597+00:00,1415,108407,107366.76095327866,108500.46378379628,136630.67062266715,101892.63992221832,119818.78367886349,107069.37099330079,172006.86597905945,153703.80475566446,TASK2
2026-05-26T09:24:57.597+00:00,1415,108408,107366.2915666451,108500.73200472974,136623.49571269698,101893.71280595218,119818.31429222993,107068.3651648003,172003.44616215778,153699.84849689587,TASK2
2026-05-26T09:24:57.597+00:00,1415,108409,107363.67641254382,108500.73200472974,136616.58902366032,101895.59035248643,119818.11312652983,107068.63338573376,172001.63567085692,153698.84266839537,TASK2
2026-05-26T09:24:57.597+00:00,1415,108410,107362.67058404333,108501.00022566321,136609.68233462362,101897.46789902067,119816.83907709588,107068.90160666722,171999.55695862256,153696.49573522757,TASK2
2026-05-26T09:24:57.597+00:00,1415,108411,107362.9388049768,108499.99439716272,136601.4345409196,101898.54078275453,119818.1801817632,107069.43804853415,171999.08757198902,153696.29456952747,TASK2
2026-05-26T09:24:57.597+00:00,1415,108412,107361.93297647631,108500.53083902966,136593.72318908252,101901.22299208916,119818.71662363013,107072.92492066917,172000.69689758978,153695.0205200935,TASK2
2026-05-26T09:24:57.597+00:00,1415,108413,107360.12248517542,108501.06728089658,136584.9389535116,101902.02765488955,119817.44257419617,107074.80246720342,171999.15462722236,153692.6735869257,TASK2
2026-05-26T09:24:57.597+00:00,1415,108414,107360.92714797582,108501.06728089658,136578.8369272753,101903.1005386234,119817.9790160631,107076.14357187075,172001.30039469007,153693.4782497261,TASK2
2026-05-26T09:24:57.597+00:00,1415,108415,107363.81052301056,108503.81654546458,136575.484165607,101908.06262589249,119821.93527483169,107078.89283643874,172005.25665345867,153696.69690092767,TASK2
2026-05-26T09:24:57.597+00:00,1415,108416,107364.88340674441,108504.08476639804,136571.79612777187,101913.1588236283,119824.88570509979,107080.50216203953,172009.01174652716,153699.3791102623,TASK2
2026-05-26T09:24:57.597+00:00,1415,108417,107367.56561607905,108507.83985946653,136567.83986900328,101918.25502136411,119827.83613536789,107082.64792950723,172009.27996746064,153698.64150269527,TASK2
2026-05-26T09:24:57.597+00:00,1415,108418,107366.2915666451,108511.86317346849,136556.37342409772,101917.78563473055,119823.0752137989,107081.91032194022,172000.49573188968,153689.85726712435,TASK2
2026-05-26T09:24:57.597+00:00,1415,108419,107362.06708694305,108508.71157750029,136543.29765359135,101914.36581782888,119815.63208289529,107075.54007477046,171993.589042853,153681.34125248686,TASK2
2026-05-26T09:24:57.597+00:00,1415,108420,107359.72015377524,108508.24219086673,136532.63587148619,101914.90225969581,119813.82159159442,107074.53424626996,171993.589042853,153680.60364491984,TASK2
2026-05-26T09:24:57.597+00:00,1415,108421,107357.10499967396,108509.85151646752,136520.3647637802,101915.7069224962,119811.20643749314,107075.60713000382,171990.70566781826,153677.18382801817,TASK2
2026-05-26T09:24:57.597+00:00,1415,108422,107355.02628743961,108512.26550486869,136512.65341194312,101919.99845743162,119810.46882992612,107078.28933933846,171991.2421096852,153677.18382801817,TASK2
2026-05-26T09:24:57.597+00:00,1415,108423,107354.55690080606,108516.02059793718,136507.89249037416,101926.70398076822,119810.73705085958,107081.77621147348,171992.58321435252,153678.79315361896,TASK2
2026-05-26T09:24:57.597+00:00,1415,108424,107354.55690080606,108517.89814447142,136499.37647573667,101929.65441103632,119809.73122235909,107082.84909520733,171991.30916491855,153678.59198791886,TASK2
2026-05-26T09:24:57.597+00:00,1415,108425,107355.09334267299,108519.77569100566,136491.12868203266,101932.87306223788,119809.530056659,107084.72664174158,171990.57155735153,153679.66487165273,TASK2
2026-05-26T09:24:57.597+00:00,1415,108426,107356.16622640684,108518.76986250519,136483.14910926213,101935.01882970559,119810.33471945938,107084.99486267504,171990.57155735153,153680.73775538657,TASK2
2026-05-26T09:24:57.992+00:00,1416,108427,107356.97088920724,108517.22759213776,136475.97419929196,101936.62815530636,119812.48048692709,107082.9161504407,171989.83394978452,153681.2741972535,TASK2
2026-05-26T09:24:57.992+00:00,1416,108428,107357.77555200762,108518.30047587161,136468.53106838834,101938.50570184061,119814.62625439481,107082.9161504407,171991.71149631875,153682.07886005388,TASK2
2026-05-26T09:24:57.992+00:00,1416,108429,107358.58021480801,108518.56869680509,136460.81971655128,101939.310364641,119816.77202186252,107084.25725510802,171993.05260098606,153681.87769435378,TASK2
2026-05-26T09:24:57.992+00:00,1416,108430,107357.842607241,108519.9098014724,136454.18124844806,101943.60189957642,119816.57085616242,107086.40302257573,171993.85726378646,153684.0234618215,TASK2
2026-05-26T09:24:57.992+00:00,1416,108431,107357.6414415409,108521.51912707319,136445.66523381058,101946.0158879776,119816.36969046232,107088.8170109769,171994.93014752032,153687.24211302307,TASK2
2026-05-26T09:24:57.992+00:00,1416,108432,107358.98254620821,108520.78151950616,136439.02676570736,101947.08877171145,119819.58834166388,107089.62167377729,171995.19836845377,153687.51033395654,TASK2
2026-05-26T09:24:57.992+00:00,1416,108433,107361.39653460938,108521.58618230655,136432.12007667066,101947.89343451185,119820.9294463312,107088.88406621027,171994.46076088675,153688.04677582346,TASK2
2026-05-26T09:24:57.992+00:00,1416,108434,107361.93297647631,108522.6590660404,136424.94516670052,101949.23453917916,119821.19766726467,107089.95694994413,171992.91849051934,153688.85143862385,TASK2
2026-05-26T09:24:57.992+00:00,1416,108435,107362.20119740977,108523.4637288408,136418.57491953074,101951.64852758033,119822.00233006505,107090.76161274452,171993.45493238626,153689.65610142425,TASK2
2026-05-26T09:24:57.992+00:00,1416,108436,107362.00003170967,108525.6094963085,136412.47289329444,101955.13539971536,119823.34343473238,107092.63915927875,171995.86892078744,153689.9243223577,TASK2
2026-05-26T09:24:57.992+00:00,1416,108437,107359.92131947534,108524.87188874147,136405.02976239083,101955.13539971536,119822.06938529843,107091.09688891134,171993.52198761964,153686.7727263895,TASK2
2026-05-26T09:24:57.992+00:00,1416,108438,107358.91549097485,108524.13428117445,136396.2455268199,101954.93423401527,119820.79533586447,107090.09106041085,171991.4432753853,153682.01180482053,TASK2
2026-05-26T09:24:57.992+00:00,1416,108439,107358.44610434129,108522.32378987357,136387.9977331159,101953.92840551477,119819.25306549705,107088.54879004344,171990.4374468848,153679.12842978578,TASK2
2026-05-26T09:24:57.992+00:00,1416,108440,107358.98254620821,108521.04974043962,136381.8957068796,101954.19662644823,119820.05772829744,107088.54879004344,171990.97388875173,153680.73775538657,TASK2
2026-05-26T09:24:57.992+00:00,1416,108441,107359.51898807514,108520.3121328726,136376.3301225102,101955.53773111556,119822.47171669862,107089.08523191037,171993.11965621944,153683.4199647212,TASK2
2026-05-26T09:24:57.992+00:00,1416,108442,107361.66475554285,108523.53078407416,136369.35637824016,101960.3657079179,119824.01398706604,107093.57793254589,171995.93597602082,153690.79604039146,TASK2
2026-05-26T09:24:57.992+00:00,1416,108443,107361.66475554285,108526.2129934088,136363.79079387078,101964.65724285333,119823.54460043248,107093.84615347935,171998.61818535544,153695.89223812727,TASK2
2026-05-26T09:24:57.992+00:00,1416,108444,107361.46358984275,108529.1634236769,136357.15232576756,101968.14411498835,119824.34926323286,107096.26014188051,172001.56861562355,153699.64733119577,TASK2
2026-05-26T09:24:57.992+00:00,1416,108445,107362.00003170967,108531.84563301153,136351.05029953126,101971.89920805684,119824.61748416633,107099.74701401555,172000.83100805653,153700.7202149296,TASK2
2026-05-26T09:24:57.992+00:00,1416,108446,107362.00003170967,108533.99140047924,136345.21649422843,101976.19074299226,119825.69036790018,107102.16100241672,172000.0934004895,153700.5190492295,TASK2
2026-05-26T09:24:57.992+00:00,1416,108447,107360.9942032092,108535.86894701349,136339.11446799213,101978.8729523269,119825.48920220009,107104.84321175136,171999.62401385594,153698.9767788621,TASK2
2026-05-26T09:24:57.992+00:00,1416,108448,107360.25659564216,108536.13716794696,136333.01244175583,101979.94583606075,119826.025644067,107104.3738251178,171998.08174348852,153697.70272942816,TASK2
2026-05-26T09:24:57.992+00:00,1416,108449,107359.51898807514,108536.94183074734,136326.3739736526,101981.55516166153,119827.36674873433,107105.44670885165,171998.08174348852,153696.4286799942,TASK2
2026-05-26T09:24:57.992+00:00,1416,108450,107360.86009274246,108536.47244411378,136320.54016834978,101983.16448726231,119828.70785340165,107106.51959258551,171999.42284815584,153694.88640962678,TASK2
2026-05-26T09:24:57.992+00:00,1416,108451,107360.3907061089,108532.24796441173,136313.3652583796,101983.70092912925,119830.04895806896,107104.1726594177,171999.22168245574,153693.34413925937,TASK2
2026-05-26T09:24:57.992+00:00,1416,108452,107361.46358984275,108531.24213591123,136306.72679027639,101987.18780126427,119833.80405113746,107105.51376408502,172001.63567085692,153694.68524392668,TASK2
2026-05-26T09:24:57.992+00:00,1416,108453,107360.9942032092,108537.14299644744,136298.47899657238,101991.21111526623,119831.99355983658,107109.00063622005,171999.28873768912,153690.7289851581,TASK2
2026-05-26T09:24:57.992+00:00,1416,108454,107357.57438630752,108538.48410111477,136285.67144699948,101990.47350769921,119826.15975453374,107109.00063622005,171993.72315331973,153685.16340078873,TASK2
2026-05-26T09:24:57.992+00:00,1416,108455,107355.22745313971,108536.40538888042,136278.49653702934,101991.27817049959,119825.15392603325,107108.53124958648,171994.7960370536,153685.16340078873,TASK2
2026-05-26T09:24:57.992+00:00,1416,108456,107354.4898455727,108537.47827261427,136272.39451079303,101993.69215890077,119824.68453939969,107108.79947051995,171994.32665042003,153683.88935135477,TASK2
2026-05-26T09:24:57.992+00:00,1416,108457,107354.02045893914,108538.81937728159,136264.95137988942,101995.56970543502,119823.41048996574,107110.67701705419,171993.589042853,153681.81063912043,TASK2
2026-05-26T09:24:57.992+00:00,1416,108458,107354.2886798726,108539.89226101544,136258.04469085272,101998.25191476964,119825.01981556653,107113.35922638883,171993.589042853,153681.0730315534,TASK2
2026-05-26T09:24:57.992+00:00,1416,108459,107355.09334267299,108541.50158661623,136253.5519902172,102001.73878690468,119827.97024583463,107116.04143572347,171996.00303125416,153681.87769435378,TASK2
2026-05-26T09:24:57.992+00:00,1416,108460,107355.62978453991,108543.37913315048,136247.4499639809,102004.4209962393,119828.77490863501,107117.3825403908,171996.00303125416,153678.72609838558,TASK2
2026-05-26T09:24:57.992+00:00,1416,108461,107356.70266827376,108543.64735408394,136241.61615867808,102006.29854277355,119829.5795714354,107118.18720319119,171994.72898182023,153676.11094428433,TASK2
2026-05-26T09:24:57.992+00:00,1416,108462,107357.77555200762,108543.44618838384,136236.31879524217,102008.71253117474,119829.3784057353,107117.71781655763,171992.91849051934,153673.49579018305,TASK2
2026-05-26T09:24:57.992+00:00,1416,108463,107357.0379444406,108544.25085118423,136229.68032713895,102012.73584517669,119829.64662666876,107120.1318049588,171992.71732481924,153674.03223204997,TASK2
2026-05-26T09:24:57.992+00:00,1416,108464,107356.8367787405,108544.51907211769,136223.04185903573,102013.27228704361,119828.37257723481,107118.32131365791,171992.24793818567,153674.30045298344,TASK2
2026-05-26T09:24:57.992+00:00,1416,108465,107356.09917117347,108541.90391801643,136216.67161186595,102010.65713294235,119828.64079816829,107115.70615955663,171992.24793818567,153675.64155765076,TASK2
2026-05-26T09:24:57.992+00:00,1416,108466,107355.62978453991,108540.361647649,136211.64246936352,102011.19357480927,119829.9819028356,107115.70615955663,171993.85726378646,153678.86020885233,TASK2
2026-05-26T09:24:57.992+00:00,1416,108467,107356.70266827376,108540.62986858247,136205.27222219374,102011.99823760966,119829.7807371355,107115.9743804901,171991.77855155212,153677.04971755145,TASK2
2026-05-26T09:24:57.992+00:00,1416,108468,107356.70266827376,108541.97097324979,136198.0973122236,102014.41222601083,119829.5795714354,107117.04726422396,171991.0409439851,153676.04388905095,TASK2
2026-05-26T09:24:57.992+00:00,1416,108469,107355.16039790635,108542.23919418325,136190.65418132,102015.4851097447,119828.03730106799,107116.84609852388,171988.42578988383,153674.23339775007,TASK2
2026-05-26T09:24:57.992+00:00,1416,108470,107352.81346473855,108542.23919418325,136182.40638761598,102017.36265627893,119825.95858883364,107117.3825403908,171989.4986736177,153674.76983961702,TASK2
2026-05-26T09:24:57.992+00:00,1416,108471,107351.80763623805,108542.03802848315,136175.49969857928,102019.24020281318,119826.49503070058,107116.91315375724,171991.6444410854,153677.18382801817,TASK2
2026-05-26T09:24:57.992+00:00,1416,108472,107351.80763623805,108541.03219998267,136169.12945140954,102020.31308654703,119828.90901910175,107118.52247935801,171992.44910388577,153678.79315361896,TASK2
2026-05-26T09:24:57.992+00:00,1416,108473,107354.35573510596,108542.50741511672,136163.56386704015,102023.73290344869,119832.59705693687,107122.94812476017,171994.3937056534,153680.40247921975,TASK2
2026-05-26T09:24:57.992+00:00,1416,108474,107353.8863484724,108542.03802848315,136156.12073613654,102022.99529588167,119833.9381616042,107121.1376334593,171992.85143528596,153676.98266231807,TASK2
2026-05-26T09:24:57.992+00:00,1416,108475,107353.14874090538,108542.84269128354,136148.67760523292,102024.33640054899,119834.74282440457,107120.66824682573,171992.65026958587,153675.44039195066,TASK2
2026-05-26T09:24:57.992+00:00,1416,108476,107351.3382496045,108543.37913315048,136141.50269526275,102026.21394708323,119833.46877497062,107120.66824682573,171993.9913742532,153675.44039195066,TASK2
2026-05-26T09:24:57.992+00:00,1416,108477,107348.45487456975,108542.64152558344,136132.71845969182,102027.28683081709,119830.31717900244,107121.47290962611,171994.25959518665,153675.70861288413,TASK2
2026-05-26T09:24:57.992+00:00,1416,108478,107347.9854879362,108542.17213894989,136123.9342241209,102027.55505175055,119829.84779236886,107122.54579335997,171996.13714172092,153677.58615941837,TASK2
2026-05-26T09:24:57.992+00:00,1416,108479,107347.24788036918,108542.70858081682,136116.49109321728,102026.81744418353,119830.11601330234,107123.0822352269,171996.40536265436,153678.92726408568,TASK2
2026-05-26T09:24:57.992+00:00,1416,108480,107348.85720596995,108545.39079015145,136111.19372978137,102029.2314325847,119833.87110637082,107123.8868980273,171998.81935105554,153684.0234618215,TASK2
2026-05-26T09:24:57.992+00:00,1416,108481,107349.9300897038,108546.4636738853,136104.8234826116,102033.25474658665,119838.16264130625,107127.64199109578,171999.8922347894,153685.63278742228,TASK2
2026-05-26T09:24:57.992+00:00,1416,108482,107350.19831063728,108547.53655761915,136099.25789824224,102035.9369559213,119839.2355250401,107130.05597949696,171998.61818535544,153683.55407518795,TASK2
2026-05-26T09:24:57.992+00:00,1416,108483,107351.53941530459,108549.95054602034,136094.76519760673,102040.22849085671,119841.64951344127,107131.12886323081,172000.49573188968,153685.43162172218,TASK2
2026-05-26T09:24:57.992+00:00,1416,108484,107350.5335868041,108549.74938032024,136089.19961323735,102040.49671179018,119843.79528090898,107130.65947659725,172000.49573188968,153685.43162172218,TASK2
2026-05-26T09:24:57.992+00:00,1416,108485,107350.80180773756,108548.47533088629,136084.1704707349,102040.49671179018,119843.32589427542,107132.5370231315,171998.14879872187,153682.28002575398,TASK2
2026-05-26T09:24:57.992+00:00,1416,108486,107351.60647053795,108548.00594425273,136078.60488636553,102042.37425832442,119844.66699894273,107132.80524406496,171996.338307421,153680.73775538657,TASK2
2026-05-26T09:24:57.992+00:00,1416,108487,107351.40530483786,108546.4636738853,136072.50286012923,102043.9835839252,119845.73988267659,107131.26297369755,171997.1429702214,153680.00014781955,TASK2
2026-05-26T09:24:57.992+00:00,1416,108488,107350.1312554039,108545.45784538482,136065.0597292256,102043.9835839252,119845.73988267659,107131.26297369755,171996.67358358784,153679.26254025253,TASK2
2026-05-26T09:24:57.992+00:00,1416,108489,107350.39947633738,108543.9155750174,136058.9577029893,102044.7882467256,119846.81276641044,107131.26297369755,171996.67358358784,153679.53076118598,TASK2
2026-05-26T09:24:57.992+00:00,1416,108490,107349.39364783689,108542.10508371652,136050.7099092853,102045.05646765906,119846.61160071034,107131.53119463101,171996.9418045213,153677.18382801817,TASK2
2026-05-26T09:24:57.992+00:00,1416,108491,107347.04671466908,108540.83103428257,136042.19389464785,102046.66579325985,119844.80110940947,107134.74984583257,171997.47824638823,153675.10511578384,TASK2
2026-05-26T09:24:57.992+00:00,1416,108492,107346.57732803552,108540.361647649,136036.09186841155,102050.42088632833,119845.06933034293,107134.28045919901,171999.62401385594,153676.44622045115,TASK2
2026-05-26T09:24:57.992+00:00,1416,108493,107346.37616233542,108538.01471448119,136028.64873750793,102052.56665379605,119844.33172277591,107131.93352603121,171998.88640628892,153674.90395008374,TASK2
2026-05-26T09:24:57.992+00:00,1416,108494,107348.11959840293,108536.27127841368,136023.82076070557,102055.71824976424,119849.42792051172,107132.3358574314,171998.95346152227,153676.17799951768,TASK2
2026-05-26T09:24:57.992+00:00,1416,108495,107348.11959840293,108534.72900804627,136018.2551763362,102057.32757536502,119851.57368797943,107136.09095049989,172002.17211272384,153678.59198791886,TASK2
2026-05-26T09:24:57.992+00:00,1416,108496,107350.26536587064,108534.99722897973,136016.71290596877,102062.96021496777,119857.74276944909,107140.38248543532,172012.36450819546,153687.44327872316,TASK2
2026-05-26T09:24:57.992+00:00,1416,108497,107352.14291240489,108535.53367084666,136012.7566472002,102065.6424243024,119860.96142065065,107144.1375785038,172014.2420547297,153690.1254880578,TASK2
2026-05-26T09:24:57.992+00:00,1416,108498,107348.45487456975,108536.87477551398,135995.12112082494,102060.61328179995,119850.03141761202,107140.9859825356,171998.21585395525,153674.63572915026,TASK2
2026-05-26T09:24:57.992+00:00,1416,108499,107343.42573206732,108533.72317954578,135979.36314098397,102055.58413929751,119838.8331936399,107132.7381888316,171985.1400834489,153659.68241210966,TASK2
2026-05-26T09:24:57.992+00:00,1416,108500,107340.27413609912,108531.37624637797,135969.50602167918,102054.04186893009,119834.60871393785,107127.4408253957,171979.0380572126,153652.23928120604,TASK2
2026-05-26T09:24:57.992+00:00,1416,108501,107336.58609826399,108529.02931321017,135957.77135584014,102050.62205202843,119828.23846676809,107122.6799038267,171967.0351704401,153640.504615367,TASK2
2026-05-26T09:24:57.992+00:00,1416,108502,107332.6298394954,108525.87771724197,135947.64601560187,102048.81156072755,119823.20932426564,107117.3825403908,171961.4695860707,153633.59792633032,TASK2
2026-05-26T09:24:57.992+00:00,1416,108503,107331.35579006145,108523.53078407416,135941.5439893656,102048.81156072755,119822.73993763208,107115.57204908991,171960.46375757025,153631.78743502946,TASK2
2026-05-26T09:24:57.992+00:00,1416,108504,107327.39953129286,108519.57452530556,135931.95509099425,102047.26929036014,119817.17435326272,107113.22511592209,171955.4346150678,153627.02651346047,TASK2
2026-05-26T09:24:57.992+00:00,1416,108505,107321.83394692349,108516.42292933738,135918.8793204879,102044.65413625886,119811.07232702641,107110.60996182082,171949.3325888315,153621.19270815764,TASK2
2026-05-26T09:24:57.992+00:00,1416,108506,107320.0234556226,108513.53955430264,135909.8268639835,102045.45879905926,119808.99361479207,107110.14057518727,171949.60080976496,153621.72915002456,TASK2
2026-05-26T09:24:57.992+00:00,1416,108507,107321.09633935646,108510.6561792679,135905.334163348,102047.06812466004,119811.40760319323,107108.86652575331,171952.8194609665,153624.4113593592,TASK2
2026-05-26T09:24:57.992+00:00,1416,108508,107321.36456028993,108508.84568796703,135900.03679991208,102048.94567119428,119813.28514972748,107110.20763042063,171954.4287865673,153625.48424309306,TASK2
2026-05-26T09:24:57.992+00:00,1416,108509,107320.35873178944,108508.1080804,135895.2758783431,102054.57831079702,119814.62625439481,107113.42628162219,171958.45210056927,153627.8982314942,TASK2
2026-05-26T09:24:57.992+00:00,1416,108510,107320.35873178944,108507.10225189952,135889.17385210682,102059.67450853283,119815.16269626173,107116.91315375724,171963.81651923852,153633.53087109697,TASK2
2026-05-26T09:24:57.992+00:00,1416,108511,107320.89517365636,108507.10225189952,135882.26716307012,102063.16138066785,119817.5766846629,107121.20468869265,171967.57161230702,153636.48130136507,TASK2
2026-05-26T09:24:57.992+00:00,1416,108512,107321.69983645676,108505.02353966517,135876.16513683382,102065.57536906903,119821.06355679793,107124.69156082769,171969.9856007082,153637.017743232,TASK2
2026-05-26T09:24:57.992+00:00,1416,108513,107322.77272019061,108501.87194369697,135868.18556406326,102066.64825280289,119824.01398706604,107126.8373282954,171972.39958910938,153638.62706883278,TASK2
2026-05-26T09:24:57.992+00:00,1416,108514,107324.11382485794,108499.2567895957,135862.88820062735,102069.06224120405,119826.69619640068,107127.37377016232,171976.15468217788,153641.57749910088,TASK2
2026-05-26T09:24:57.992+00:00,1416,108515,107326.25959232564,108497.98274016175,135859.73660465918,102069.59868307099,119826.69619640068,107128.17843296271,171977.76400777863,153640.83989153386,TASK2
2026-05-26T09:24:57.992+00:00,1416,108516,107325.52198475861,108496.17224886086,135852.29347375553,102069.86690400445,119824.61748416633,107127.17260446222,171975.14885367738,153635.54252809795,TASK2
2026-05-26T09:24:57.992+00:00,1416,108517,107323.9797143912,108494.09353662652,135843.5092381846,102070.67156680484,119824.14809753277,107126.16677596174,171970.11971117492,153629.17228092818,TASK2
2026-05-26T09:24:57.992+00:00,1416,108518,107323.24210682417,108491.74660345871,135836.066107281,102071.47622960524,119824.14809753277,107126.16677596174,171967.50455707367,153627.63001056077,TASK2
2026-05-26T09:24:57.992+00:00,1416,108519,107324.31499055802,108489.13144935745,135829.49469441114,102073.08555520601,119824.81864986643,107130.79358706398,171967.4375018403,153626.62418206027,TASK2
2026-05-26T09:24:57.992+00:00,1416,108520,107324.85143242496,108486.51629525617,135822.05156350753,102073.35377613948,119823.81282136594,107133.47579639862,171967.4375018403,153626.1547954267,TASK2
2026-05-26T09:24:57.992+00:00,1416,108521,107325.65609522535,108484.97402488875,135816.21775820467,102076.03598547411,119825.69036790018,107134.28045919901,171968.51038557413,153629.64166756175,TASK2
2026-05-26T09:24:57.992+00:00,1416,108522,107326.46075802574,108485.51046675569,135812.52972036955,102080.595741343,119830.25012376906,107134.54868013247,171975.21590891073,153636.6154118318,TASK2
2026-05-26T09:24:57.992+00:00,1416,108523,107325.99137139217,108485.30930105559,135809.37812440135,102082.47328787725,119831.85944936985,107136.42622666672,171979.2392229127,153639.02940023298,TASK2
2026-05-26T09:24:57.992+00:00,1416,108524,107324.44910102476,108485.10813535549,135804.08076096544,102082.47328787725,119831.65828366975,107136.96266853364,171978.50161534568,153637.2189089321,TASK2
2026-05-26T09:24:57.992+00:00,1416,108525,107324.44910102476,108484.63874872193,135796.63763006183,102084.61905534496,119831.18889703619,107139.37665693482,171980.37916187992,153637.2189089321,TASK2
2026-05-26T09:24:57.992+00:00,1416,108526,107323.1750515908,108483.0964783545,135786.78051075703,102085.96016001227,119829.64662666876,107140.18131973522,171982.52492934762,153638.82823453288,TASK2
2026-05-26T09:24:58.335+00:00,1417,108527,107322.97388589071,108482.35887078749,135779.6056007869,102088.10592747998,119828.90901910175,107141.25420346907,171984.67069681533,153641.24222293403,TASK2
2026-05-26T09:24:58.335+00:00,1417,108528,107322.97388589071,108483.96819638826,135772.16246988327,102089.4470321473,119829.1772400352,107142.32708720292,171984.67069681533,153641.24222293403,TASK2
2026-05-26T09:24:58.335+00:00,1417,108529,107321.69983645676,108484.5046382552,135764.45111804619,102089.71525308077,119828.9760743351,107142.32708720292,171983.9330892483,153640.504615367,TASK2
2026-05-26T09:24:58.335+00:00,1417,108530,107319.88934515588,108484.03525162164,135758.08087087644,102088.97764551373,119827.97024583463,107141.32125870243,171984.46953111523,153640.3034496669,TASK2
2026-05-26T09:24:58.335+00:00,1417,108531,107319.15173758885,108485.64457722241,135749.56485623895,102091.39163391491,119827.2326382676,107142.39414243629,171984.0001444817,153640.5716706004,TASK2
2026-05-26T09:24:58.335+00:00,1417,108532,107318.68235095529,108487.52212375666,135740.51239973455,102093.00095951569,119827.2326382676,107142.39414243629,171984.5365863486,153641.1081124673,TASK2
2026-05-26T09:24:58.335+00:00,1417,108533,107317.6765224548,108487.79034469012,135731.9963850971,102093.00095951569,119827.76908013453,107144.80813083745,171985.341249149,153642.7174380681,TASK2
2026-05-26T09:24:58.335+00:00,1417,108534,107316.40247302085,108487.79034469012,135724.28503326,102093.26918044916,119828.03730106799,107146.95389830518,171984.06719971503,153643.25387993501,TASK2
2026-05-26T09:24:58.335+00:00,1417,108535,107314.86020265344,108488.05856562359,135717.11012328987,102096.21961071725,119826.49503070058,107149.36788670634,171981.9884874807,153643.05271423492,TASK2
2026-05-26T09:24:58.335+00:00,1417,108536,107316.46952825421,108489.93611215784,135715.56785292242,102100.2429247192,119828.64079816829,107150.70899137366,171984.9389177488,153645.19848170262,TASK2
2026-05-26T09:24:58.335+00:00,1417,108537,107317.2741910546,108490.2043330913,135710.80693135347,102102.12047125345,119828.64079816829,107150.50782567356,171984.9389177488,153645.4667026361,TASK2
2026-05-26T09:24:58.335+00:00,1417,108538,107316.00014162065,108490.0031673912,135702.55913764946,102102.65691312039,119827.09852780086,107150.50782567356,171980.17799617982,153641.77866480098,TASK2
2026-05-26T09:24:58.335+00:00,1417,108539,107314.7260921867,108492.14893485891,135695.11600674584,102105.33912245503,119828.9760743351,107153.45825594166,171978.6357258124,153640.504615367,TASK2
2026-05-26T09:24:58.335+00:00,1417,108540,107314.25670555314,108494.29470232662,135689.28220144298,102106.9484480558,119831.65828366975,107155.60402340937,171979.4403886128,153640.7728363005,TASK2
2026-05-26T09:24:58.335+00:00,1417,108541,107315.06136835353,108493.82531569306,135683.71661707363,102106.21084048878,119832.7311674036,107155.13463677581,171977.6298973119,153640.03522873347,TASK2
2026-05-26T09:24:58.335+00:00,1417,108542,107315.06136835353,108493.3559290595,135678.4192536377,102108.89304982341,119832.7311674036,107154.39702920879,171976.8922897449,153639.29762116642,TASK2
2026-05-26T09:24:58.335+00:00,1417,108543,107314.86020265344,108493.89237092642,135673.1218902018,102111.03881729112,119831.72533890311,107155.20169200918,171974.5453565771,153637.48712986556,TASK2
2026-05-26T09:24:58.335+00:00,1417,108544,107315.1284235869,108493.89237092642,135666.2152011651,102111.57525915805,119831.52417320301,107152.5865379079,171970.32087687502,153632.4579873631,TASK2
2026-05-26T09:24:58.335+00:00,1417,108545,107315.93308638729,108494.16059185988,135661.99072146305,102112.11170102497,119833.40171973726,107154.19586350869,171969.85149024148,153631.72037979608,TASK2
2026-05-26T09:24:58.335+00:00,1417,108546,107318.81646142203,108497.31218782808,135660.78372726246,102116.8055673606,119839.03435934,107158.82267461094,171974.344190877,153632.6591530632,TASK2
2026-05-26T09:24:58.335+00:00,1417,108547,107318.61529572193,108496.57458026106,135655.75458476,102118.9513348283,119841.44834774117,107158.62150891084,171974.61241181043,153631.38510362926,TASK2
2026-05-26T09:24:58.335+00:00,1417,108548,107318.61529572193,108497.91568492838,135650.4572213241,102120.56066042908,119841.9847896081,107157.88390134381,171975.41707461083,153631.6533245627,TASK2
2026-05-26T09:24:58.335+00:00,1417,108549,107318.61529572193,108498.18390586184,135645.69629975513,102120.09127379552,119843.05767334196,107161.37077347885,171977.02640021162,153632.72620829658,TASK2
2026-05-26T09:24:58.335+00:00,1417,108550,107319.68817945578,108498.72034772877,135639.05783165188,102121.70059939631,119843.05767334196,107164.32120374695,171979.97683047972,153634.87197576428,TASK2
2026-05-26T09:24:58.335+00:00,1417,108551,107319.48701375569,108499.52501052916,135630.54181701443,102122.5052621967,119842.32006577493,107163.85181711338,171982.12259794743,153635.14019669776,TASK2
2026-05-26T09:24:58.335+00:00,1417,108552,107317.6765224548,108500.86611519648,135622.83046517734,102123.84636686402,119839.70491167366,107164.65647991377,171983.1954816813,153635.14019669776,TASK2
2026-05-26T09:24:58.335+00:00,1417,108553,107317.94474338826,108501.93899893033,135617.8013226749,102126.52857619865,119840.50957447405,107166.53402644802,171986.1459119494,153636.74952229852,TASK2
2026-05-26T09:24:58.335+00:00,1417,108554,107318.4811852552,108502.20721986379,135611.6992964386,102126.32741049856,119841.58245820791,107165.25997701407,171986.95057474976,153636.74952229852,TASK2
2026-05-26T09:24:58.335+00:00,1417,108555,107318.2800195551,108503.28010359766,135607.74303767,102126.59563143202,119842.92356287522,107163.98592758011,171986.95057474976,153637.5541850989,TASK2
2026-05-26T09:24:58.335+00:00,1417,108556,107317.54241198808,108503.28010359766,135601.90923236718,102128.47317796627,119844.80110940947,107163.78476188002,171989.63278408442,153638.62706883278,TASK2
2026-05-26T09:24:58.335+00:00,1417,108557,107317.81063292154,108505.42587106537,135595.80720613088,102133.56937570208,119847.75153967757,107167.00341308158,171993.65609808636,153641.3092781674,TASK2
2026-05-26T09:24:58.335+00:00,1417,108558,107320.76106318964,108507.57163853307,135592.11916829576,102135.44692223633,119849.62908621182,107166.26580551456,171991.0409439851,153638.42590313268,TASK2
2026-05-26T09:24:58.335+00:00,1417,108559,107320.55989748954,108507.83985946653,135585.21247925906,102132.56354720159,119847.55037397747,107163.65065141328,171985.7435805492,153631.2509931625,TASK2
2026-05-26T09:24:58.335+00:00,1417,108560,107319.28584805559,108508.1080804,135579.64689488968,102133.63643093544,119844.9352198762,107163.91887234675,171985.5424148491,153628.63583906126,TASK2
2026-05-26T09:24:58.335+00:00,1417,108561,107318.54824048856,108507.9069146999,135572.74020585298,102135.78219840315,119844.46583324263,107165.796418881,171985.07302821553,153625.48424309306,TASK2
2026-05-26T09:24:58.335+00:00,1417,108562,107317.2741910546,108509.24801936722,135563.15130748166,102136.31864027008,119843.19178380868,107166.06463981446,171981.11676944693,153623.94197272565,TASK2
2026-05-26T09:24:58.335+00:00,1417,108563,107317.81063292154,108510.0526821676,135558.12216497923,102138.46440773779,119845.60577220986,107166.06463981446,171983.7989787816,153626.89240299375,TASK2
2026-05-26T09:24:58.335+00:00,1417,108564,107317.34124628798,108509.31507460058,135553.36124341024,102139.53729147164,119846.14221407678,107167.13752354831,171985.40830438235,153627.1606239272,TASK2
2026-05-26T09:24:58.335+00:00,1417,108565,107316.06719685403,108510.11973740098,135548.86854277473,102141.41483800589,119844.33172277591,107169.01507008256,171983.32959214802,153624.27724889247,TASK2
2026-05-26T09:24:58.335+00:00,1417,108566,107316.60363872095,108511.46084206829,135542.49829560498,102143.5606054736,119843.32589427542,107169.55151194948,171980.9826589802,153622.46675759158,TASK2
2026-05-26T09:24:58.335+00:00,1417,108567,107317.14008058788,108513.87483046946,135537.46915310252,102147.04747760862,119844.66699894273,107171.96550035066,171980.9826589802,153621.4609290911,TASK2
2026-05-26T09:24:58.335+00:00,1417,108568,107314.79314742007,108513.4054438359,135530.29424313238,102147.85214040901,119843.66117044225,107170.95967185017,171977.56284207854,153617.5046703225,TASK2
2026-05-26T09:24:58.335+00:00,1417,108569,107314.3237607865,108511.59495253503,135523.38755409568,102146.57809097506,119842.11890007483,107167.53985494851,171976.02057171112,153618.04111218944,TASK2
2026-05-26T09:24:58.335+00:00,1417,108570,107314.86020265344,108511.39378683493,135517.01730692593,102147.65097470891,119843.46000474216,107167.80807588197,171975.2829641441,153620.18687965715,TASK2
2026-05-26T09:24:58.335+00:00,1417,108571,107314.39081601988,108511.93022870185,135509.30595508884,102148.72385844277,119844.53288847601,107168.07629681543,171976.8922897449,153621.52798432446,TASK2
2026-05-26T09:24:58.335+00:00,1417,108572,107314.65903695334,108512.46667056879,135502.39926605215,102149.52852124316,119845.60577220986,107172.09961081739,171978.76983627913,153621.79620525794,TASK2
2026-05-26T09:24:58.335+00:00,1417,108573,107314.65903695334,108513.27133336918,135497.3701235497,102151.40606777741,119846.41043501026,107176.12292481934,171977.4957868452,153618.37638835626,TASK2
2026-05-26T09:24:58.335+00:00,1417,108574,107313.38498751938,108515.9535427038,135490.7316554465,102153.55183524512,119846.94687687718,107179.3415760209,171977.76400777863,153615.49301332154,TASK2
2026-05-26T09:24:58.335+00:00,1417,108575,107313.18382181929,108517.5628683046,135482.48386174248,102155.69760271283,119846.74571117708,107180.41445975476,171978.56867057903,153616.56589705538,TASK2
2026-05-26T09:24:58.335+00:00,1417,108576,107313.45204275275,108516.82526073756,135477.45471924002,102157.30692831361,119846.00810361006,107178.60396845388,171977.2946211451,153614.7554057545,TASK2
2026-05-26T09:24:58.335+00:00,1417,108577,107315.93308638729,108520.1109671725,135472.69379767103,102163.07367838308,119848.15387107777,107182.35906152238,171979.4403886128,153615.62712378826,TASK2
2026-05-26T09:24:58.335+00:00,1417,108578,107316.20130732075,108523.32961837406,135466.59177143476,102165.75588771772,119850.56785947894,107183.43194525623,171978.97100197923,153615.42595808816,TASK2
2026-05-26T09:24:58.335+00:00,1417,108579,107317.00597012114,108523.59783930752,135463.17195453309,102167.63343425195,119853.51828974704,107184.77304992355,171980.0438857131,153618.37638835626,TASK2
2026-05-26T09:24:58.335+00:00,1417,108580,107319.68817945578,108523.39667360742,135460.28857949836,102168.97453891928,119856.7369409486,107185.30949179048,171982.9943159812,153623.74080702555,TASK2
2026-05-26T09:24:58.335+00:00,1417,108581,107319.48701375569,108522.6590660404,135452.3090067278,102168.23693135225,119856.26755431504,107185.10832609038,171983.7989787816,153624.54546982594,TASK2
2026-05-26T09:24:58.335+00:00,1417,108582,107317.94474338826,108523.19550790732,135444.0612130238,102168.77337321918,119856.5357752485,107187.25409355809,171985.9447462493,153624.8136907594,TASK2
2026-05-26T09:24:58.335+00:00,1417,108583,107317.74357768816,108524.26839164119,135440.9096170556,102170.91914068689,119858.94976364968,107188.05875635848,171988.62695558392,153627.49590009404,TASK2
2026-05-26T09:24:58.335+00:00,1417,108584,107318.01179862164,108524.80483350811,135435.88047455315,102170.44975405333,119858.74859794958,107188.32697729194,171988.62695558392,153629.37344662828,TASK2
2026-05-26T09:24:58.335+00:00,1417,108585,107318.2800195551,108527.48704284275,135430.85133205072,102172.32730058758,119858.54743224948,107190.20452382619,171989.43161838432,153629.64166756175,TASK2
2026-05-26T09:24:58.335+00:00,1417,108586,107317.54241198808,108529.09636844353,135425.28574768134,102175.54595178914,119858.81565318294,107194.22783782815,171989.23045268422,153629.44050186165,TASK2
2026-05-26T09:24:58.335+00:00,1417,108587,107317.54241198808,108528.35876087651,135420.2566051789,102176.618835523,119859.62031598334,107194.49605876161,171988.4928451172,153628.1664524277,TASK2
2026-05-26T09:24:58.335+00:00,1417,108588,107317.81063292154,108527.62115330948,135415.22746267644,102176.618835523,119859.62031598334,107192.41734652726,171988.2916794171,153627.1606239272,TASK2
2026-05-26T09:24:58.335+00:00,1417,108589,107317.81063292154,108528.69403704333,135411.8076457748,102178.49638205724,119859.8885369168,107191.41151802677,171987.01762998314,153624.009027959,TASK2
2026-05-26T09:24:58.335+00:00,1417,108590,107317.60946722144,108528.69403704333,135405.97384047197,102179.03282392416,119859.8885369168,107193.02084362756,171984.67069681533,153619.78454825695,TASK2
2026-05-26T09:24:58.335+00:00,1417,108591,107316.8718596544,108528.22465040977,135398.53070956832,102178.5634372906,119857.54160374899,107193.28906456102,171981.7873217806,153616.36473135528,TASK2
2026-05-26T09:24:58.335+00:00,1417,108592,107314.79314742007,108529.29753414362,135392.42868333205,102179.09987915754,119856.5357752485,107194.09372736141,171980.7814932801,153614.55424005442,TASK2
2026-05-26T09:24:58.340+00:00,1417,108593,107312.71443518573,108529.5657550771,135387.13131989614,102179.90454195792,119856.5357752485,107193.62434072785,171982.12259794743,153615.89534472174,TASK2
2026-05-26T09:24:58.340+00:00,1417,108594,107311.70860668524,108528.29170564315,135382.6386192606,102180.44098382485,119859.21798458314,107194.16078259477,171983.46370261474,153615.69417902164,TASK2
2026-05-26T09:24:58.340+00:00,1417,108595,107311.50744098514,108529.63281031046,135375.73193022393,102182.58675129256,119859.4862055166,107199.25698033058,171983.7319235482,153614.68835052114,TASK2
2026-05-26T09:24:58.340+00:00,1417,108596,107309.42872875079,108530.70569404431,135366.94769465298,102183.92785595988,119856.87105141534,107200.06164313098,171982.72609504772,153612.60963828678,TASK2
2026-05-26T09:24:58.340+00:00,1417,108597,107309.22756305069,108531.24213591123,135361.11388935015,102185.2689606272,119857.40749328226,107201.13452686483,171983.7989787816,153612.87785922026,TASK2
2026-05-26T09:24:58.340+00:00,1417,108598,107310.43455725128,108530.43747311085,135356.75529918136,102187.75000426173,119860.290868317,107202.40857629878,171984.67069681533,153615.49301332154,TASK2
2026-05-26T09:24:58.340+00:00,1417,108599,107309.42872875079,108530.23630741076,135350.92149387853,102187.01239669471,119857.94393514919,107201.4027477983,171984.67069681533,153616.83411798885,TASK2
2026-05-26T09:24:58.340+00:00,1417,108600,107307.88645838338,108530.03514171066,135343.7465839084,102186.54301006116,119857.94393514919,107202.74385246562,171984.67069681533,153620.58921105735,TASK2
2026-05-26T09:24:58.340+00:00,1417,108601,107306.07596708249,108531.10802544451,135336.8398948717,102186.34184436106,119859.2850398165,107204.35317806639,171986.81646428304,153625.1489669262,TASK2
2026-05-26T09:24:58.340+00:00,1417,108602,107305.07013858201,108530.63863881095,135329.66498490155,102185.0677949271,119858.54743224948,107203.07912863244,171987.62112708343,153624.94780122614,TASK2
2026-05-26T09:24:58.340+00:00,1417,108603,107304.86897288192,108528.82814751007,135326.51338893335,102184.33018736007,119858.81565318294,107201.0004163981,171987.62112708343,153622.86908899178,TASK2
2026-05-26T09:24:58.340+00:00,1417,108604,107305.40541474884,108528.35876087651,135322.0206882978,102185.6712920274,119860.15675785026,107201.53685826503,171989.76689455114,153625.0148564595,TASK2
2026-05-26T09:24:58.340+00:00,1417,108605,107304.93602811528,108528.35876087651,135316.45510392846,102187.54883856163,119862.0343043845,107201.80507919849,171991.6444410854,153625.0148564595,TASK2
2026-05-26T09:24:58.340+00:00,1417,108606,107304.19842054826,108529.1634236769,135310.08485675868,102188.35350136203,119862.30252531798,107202.60974199888,171992.18088295232,153622.13148142476,TASK2
2026-05-26T09:24:58.340+00:00,1417,108607,107305.27130428211,108529.43164461036,135305.86037705664,102189.42638509588,119863.10718811836,107203.95084666621,171992.18088295232,153620.8574319908,TASK2
2026-05-26T09:24:58.340+00:00,1417,108608,107305.80774614903,108530.50452834422,135299.49012988686,102192.10859443052,119864.44829278569,107203.74968096611,171990.10217071796,153619.04694068994,TASK2
2026-05-26T09:24:58.340+00:00,1417,108609,107306.61240894943,108532.65029581192,135295.80209205174,102195.05902469862,119864.44829278569,107205.62722750034,171987.4870166167,153619.31516162338,TASK2
2026-05-26T09:24:58.340+00:00,1417,108610,107305.07013858201,108533.45495861232,135287.2860774143,102197.47301309979,119862.36958055134,107205.89544843382,171984.60364158195,153618.04111218944,TASK2
2026-05-26T09:24:58.340+00:00,1417,108611,107303.25964728113,108535.33250514657,135278.7700627768,102197.2718473997,119861.63197298431,107206.70011123421,171983.32959214802,153617.03528368895,TASK2
2026-05-26T09:24:58.340+00:00,1417,108612,107302.79026064757,108534.863118513,135272.6680365405,102195.72957703228,119863.50951951856,107205.69428273372,171982.32376364752,153614.68835052114,TASK2
2026-05-26T09:24:58.340+00:00,1417,108613,107302.79026064757,108534.39373187943,135266.5660103042,102194.99196946526,119862.50369101806,107203.88379143283,171979.97683047972,153610.19564988563,TASK2
2026-05-26T09:24:58.340+00:00,1417,108614,107302.05265308054,108532.85146151202,135261.53686780177,102193.98614096477,119860.69319971719,107202.60974199888,171978.70278104578,153607.58049578435,TASK2
2026-05-26T09:24:58.340+00:00,1417,108615,107299.9739408462,108532.113853945,135255.70306249894,102193.98614096477,119859.41915028324,107201.33569256493,171977.6969525453,153607.37933008425,TASK2
2026-05-26T09:24:58.340+00:00,1417,108616,107298.69989141225,108531.64446731143,135248.2599315953,102193.98614096477,119858.41332178275,107201.13452686483,171976.42290311132,153606.1052806503,TASK2
2026-05-26T09:24:58.340+00:00,1417,108617,107298.69989141225,108530.90685974441,135240.28035882476,102192.98031246428,119858.41332178275,107201.4027477983,171975.14885367738,153604.56301028287,TASK2
2026-05-26T09:24:58.340+00:00,1417,108618,107297.4258419783,108531.44330161133,135234.71477445538,102194.58963806507,119860.290868317,107201.93918966522,171976.4899583447,153605.09945214982,TASK2
2026-05-26T09:24:58.340+00:00,1417,108619,107296.42001347781,108531.7115225448,135229.68563195295,102195.39430086545,119860.82731018393,107200.93336116473,171977.02640021162,153603.02073991546,TASK2
2026-05-26T09:24:58.340+00:00,1417,108620,107296.42001347781,108530.97391497777,135223.58360571665,102195.93074273238,119861.36375205085,107200.73219546463,171975.75235077768,153599.06448114687,TASK2
2026-05-26T09:24:58.340+00:00,1417,108621,107295.68240591077,108530.50452834422,135218.28624228074,102196.73540553277,119861.36375205085,107199.72636696415,171976.2887926446,153597.253989846,TASK2
2026-05-26T09:24:58.340+00:00,1417,108622,107294.94479834376,108531.57741207807,135214.59820444562,102197.80828926663,119859.2850398165,107199.72636696415,171977.6298973119,153595.97994041204,TASK2
2026-05-26T09:24:58.340+00:00,1417,108623,107298.43167047878,108535.80189178012,135212.58654744463,102201.56338233512,119863.71068521866,107204.88961993332,171984.1342549484,153601.34435908133,TASK2
2026-05-26T09:24:58.340+00:00,1417,108624,107298.43167047878,108536.07011271358,135205.14341654102,102201.09399570155,119864.24712708559,107207.57182926797,171983.9330892483,153601.61258001477,TASK2
2026-05-26T09:24:58.340+00:00,1417,108625,107296.08473731097,108536.07011271358,135198.23672750432,102201.09399570155,119862.4366357847,107207.57182926797,171982.65903981435,153598.99742591352,TASK2
2026-05-26T09:24:58.340+00:00,1417,108626,107295.34712974395,108534.25962141271,135191.33003846765,102201.09399570155,119860.89436541729,107207.57182926797,171981.65321131388,153595.84582994532,TASK2
2026-05-26T09:24:58.692+00:00,1418,108627,107295.88357161087,108534.05845571261,135184.42334943096,102201.89865850194,119861.96724915114,107207.84005020143,171981.92143224733,153594.57178051135,TASK2
2026-05-26T09:24:58.692+00:00,1418,108628,107296.42001347781,108534.863118513,135180.46709066237,102203.23976316926,119864.91767941925,107209.98581766913,171982.72609504772,153595.1082223783,TASK2
2026-05-26T09:24:58.692+00:00,1418,108629,107294.8777431104,108534.66195281291,135174.0968434926,102202.7703765357,119864.71651371915,107209.98581766913,171979.0380572126,153592.7612892105,TASK2
2026-05-26T09:24:58.692+00:00,1418,108630,107293.33547274297,108534.46078711281,135166.38549165553,102204.11148120303,119864.71651371915,107209.51643103558,171978.56867057903,153593.29773107741,TASK2
2026-05-26T09:24:58.692+00:00,1418,108631,107291.5249814421,108535.80189178012,135159.21058168536,102205.98902773726,119862.6378014848,107210.85753570289,171978.8368915125,153593.56595201086,TASK2
2026-05-26T09:24:58.692+00:00,1418,108632,107290.5191529416,108536.33833364704,135153.37677638253,102205.98902773726,119861.63197298431,107209.58348626894,171978.6357258124,153591.21901884305,TASK2
2026-05-26T09:24:58.692+00:00,1418,108633,107290.04976630805,108537.41121738091,135147.81119201315,102207.59835333805,119861.43080728421,107209.38232056884,171978.90394674588,153588.6038647418,TASK2
2026-05-26T09:24:58.692+00:00,1418,108634,107289.31215874101,108537.21005168081,135141.17272390993,102208.40301613844,119861.69902821768,107209.18115486874,171978.70278104578,153587.0615943744,TASK2
2026-05-26T09:24:58.692+00:00,1418,108635,107288.03810930706,108536.47244411378,135133.9978139398,102208.20185043834,119860.96142065065,107208.97998916864,171976.35584787797,153583.37355653924,TASK2
2026-05-26T09:24:58.692+00:00,1418,108636,107287.03228080658,108536.74066504724,135128.16400863696,102209.81117603912,119860.96142065065,107207.70593973469,171975.35001937748,153582.0995071053,TASK2
2026-05-26T09:24:58.692+00:00,1418,108637,107287.30050174004,108537.00888598071,135123.1348661345,102210.61583883951,119860.76025495055,107206.96833216767,171975.35001937748,153581.0936786048,TASK2
2026-05-26T09:24:58.692+00:00,1418,108638,107283.88068483838,108536.80772028062,135115.15529336396,102210.88405977299,119855.99933338158,107207.50477403459,171973.27130714312,153576.33275703582,TASK2
2026-05-26T09:24:58.692+00:00,1418,108639,107280.72908887018,108537.07594121408,135109.58970899458,102210.14645220595,119852.57951647992,107205.96250366718,171969.85149024148,153569.96250986608,TASK2
2026-05-26T09:24:58.692+00:00,1418,108640,107279.72326036969,108536.07011271358,135104.02412462523,102210.14645220595,119852.57951647992,107203.07912863244,171967.2363361402,153568.1520185652,TASK2
2026-05-26T09:24:58.692+00:00,1418,108641,107279.99148130315,108535.86894701349,135098.72676118932,102211.21933593981,119854.45706301417,107202.60974199888,171968.30921987406,153569.76134416598,TASK2
2026-05-26T09:24:58.692+00:00,1418,108642,107279.99148130315,108536.67360981388,135095.57516522112,102213.63332434099,119858.48037701612,107203.95084666621,171971.79609200908,153572.17533256716,TASK2
2026-05-26T09:24:58.692+00:00,1418,108643,107279.79031560305,108536.94183074734,135090.00958085174,102216.58375460908,119860.62614448383,107206.63305600084,171974.21008041024,153575.3939837687,TASK2
2026-05-26T09:24:58.692+00:00,1418,108644,107280.32675746999,108538.01471448119,135082.8346708816,102217.65663834293,119861.43080728421,107208.77882346854,171975.2829641441,153577.0033093695,TASK2
2026-05-26T09:24:58.692+00:00,1418,108645,107280.32675746999,108538.28293541467,135074.85509811103,102216.38258890898,119860.69319971719,107208.77882346854,171976.8922897449,153576.8021436694,TASK2
2026-05-26T09:24:58.692+00:00,1418,108646,107279.05270803603,108539.35581914852,135067.6801881409,102216.65080984245,119859.6873712167,107208.57765776844,171977.96517347873,153576.8021436694,TASK2
2026-05-26T09:24:58.692+00:00,1418,108647,107278.58332140248,108539.35581914852,135061.5781619046,102217.18725170937,119859.21798458314,107207.84005020143,171977.96517347873,153577.07036460287,TASK2
2026-05-26T09:24:58.692+00:00,1418,108648,107277.84571383544,108540.16048194891,135055.74435660176,102218.79657731016,119859.01681888304,107207.1024426344,171977.22756591171,153577.6068064698,TASK2
2026-05-26T09:24:58.692+00:00,1418,108649,107278.38215570238,108541.23336568277,135050.44699316585,102220.94234477787,119860.0897026169,107207.37066356787,171977.76400777863,153578.67969020363,TASK2
2026-05-26T09:24:58.692+00:00,1418,108650,107278.98565280267,108543.37913315048,135043.80852506263,102224.76449307973,119860.69319971719,107210.2540386026,171978.90394674588,153583.3065013059,TASK2
2026-05-26T09:24:58.692+00:00,1418,108651,107279.25387373613,108543.9155750174,135039.3158244271,102226.10559774704,119862.0343043845,107212.13158513684,171980.2450514132,153586.256931574,TASK2
2026-05-26T09:24:58.692+00:00,1418,108652,107281.39964120384,108543.44618838384,135034.82312379158,102224.56332737963,119865.52117651954,107211.39397756982,171980.51327234664,153586.79337344092,TASK2
2026-05-26T09:24:58.692+00:00,1418,108653,107281.39964120384,108542.44035988335,135028.72109755527,102222.75283607875,119866.5940602534,107210.92459093625,171977.36167637844,153585.78754494042,TASK2
2026-05-26T09:24:58.692+00:00,1418,108654,107281.19847550374,108542.70858081682,135022.619071319,102223.55749887913,119866.86228118686,107211.46103280318,171979.77566477962,153589.006196142,TASK2
2026-05-26T09:24:58.692+00:00,1418,108655,107281.19847550374,108544.3179064176,135016.5170450827,102225.97148728032,119868.20338585417,107211.46103280318,171983.7989787816,153591.68840547663,TASK2
2026-05-26T09:24:58.692+00:00,1418,108656,107279.65620513633,108545.92723201838,135009.87857697948,102228.65369661494,119867.46577828715,107212.8021374705,171985.40830438235,153593.83417294433,TASK2
2026-05-26T09:24:58.692+00:00,1418,108657,107278.9185975693,108545.45784538482,135004.3129926101,102229.7265803488,119866.72817072012,107212.8021374705,171985.67652531582,153591.21901884305,TASK2
2026-05-26T09:24:58.692+00:00,1418,108658,107278.9185975693,108544.18379595087,135002.23428037573,102229.25719371524,119868.06927538745,107213.60680027089,171984.40247588186,153587.2627600745,TASK2
2026-05-26T09:24:58.692+00:00,1418,108659,107279.18681850277,108544.18379595087,134998.0098006737,102231.13474024949,119869.41038005476,107214.41146307129,171984.9389177488,153588.06742287488,TASK2
2026-05-26T09:24:58.692+00:00,1418,108660,107279.99148130315,108545.25667968472,134993.2488791047,102233.54872865065,119869.67860098822,107215.48434680514,171986.5482433496,153590.48141127604,TASK2
2026-05-26T09:24:58.692+00:00,1418,108661,107278.98565280267,108546.32956341858,134986.07396913457,102234.35339145105,119868.67277248774,107219.23943987364,171984.7377520487,153591.01785314296,TASK2
2026-05-26T09:24:58.692+00:00,1418,108662,107277.17516150179,108547.13422621896,134977.55795449708,102235.69449611838,119866.5940602534,107221.6534282748,171985.27419391563,153590.0120246425,TASK2
2026-05-26T09:24:58.692+00:00,1418,108663,107276.97399580169,108547.67066808589,134970.11482359347,102237.57204265261,119865.5882317529,107221.92164920826,171984.26836541513,153587.93331240813,TASK2
2026-05-26T09:24:58.692+00:00,1418,108664,107275.16350450082,108547.4695023858,134961.86702988946,102236.83443508559,119862.97307765164,107221.92164920826,171982.45787411425,153585.58637924033,TASK2
2026-05-26T09:24:58.692+00:00,1418,108665,107273.35301319993,108545.92723201838,134957.37432925394,102235.56038565164,119861.69902821768,107219.03827417354,171980.91560374683,153584.8487716733,TASK2
2026-05-26T09:24:58.692+00:00,1418,108666,107272.34718469944,108544.38496165095,134954.75917515266,102233.21345248383,119861.22964158411,107217.22778287265,171977.22756591171,153584.1111641063,TASK2
2026-05-26T09:24:58.692+00:00,1418,108667,107271.87779806588,108543.37913315048,134952.41224198486,102234.01811528423,119861.22964158411,107219.1053294069,171977.02640021162,153585.4522687736,TASK2
2026-05-26T09:24:58.692+00:00,1418,108668,107270.60374863193,108543.9155750174,134948.18776228282,102234.55455715115,119860.76025495055,107218.63594277334,171979.4403886128,153588.93914090862,TASK2
2026-05-26T09:24:58.692+00:00,1418,108669,107270.40258293183,108542.90974651692,134944.23150351422,102234.8227780846,119861.29669681749,107216.82545147245,171980.2450514132,153588.93914090862,TASK2
2026-05-26T09:24:58.692+00:00,1418,108670,107269.66497536481,108543.44618838384,134939.47058194524,102234.8227780846,119861.56491775095,107216.08784390544,171981.0497142136,153587.12864960774,TASK2
2026-05-26T09:24:58.692+00:00,1418,108671,107268.92736779778,108543.24502268374,134932.02745104162,102235.35921995154,119860.82731018393,107215.61845727188,171979.50744384615,153583.17239083914,TASK2
2026-05-26T09:24:58.692+00:00,1418,108672,107267.65331836382,108541.97097324979,134922.70677360377,102234.35339145105,119857.94393514919,107213.27152410407,171974.7465222772,153575.997480869,TASK2
2026-05-26T09:24:58.692+00:00,1418,108673,107265.03816426256,108541.97097324979,134916.87296830094,102231.47001641632,119854.52411824753,107210.38814906933,171969.9856007082,153567.48146623152,TASK2
2026-05-26T09:24:58.692+00:00,1418,108674,107263.49589389515,108541.50158661623,134913.45315139927,102229.12308324852,119853.25006881358,107207.50477403459,171965.49290007268,153560.8429981283,TASK2
2026-05-26T09:24:58.692+00:00,1418,108675,107263.02650726157,108540.22753718228,134912.44732289878,102228.11725474802,119852.51246124654,107204.35317806639,171962.073083171,153556.35029749278,TASK2
2026-05-26T09:24:58.692+00:00,1418,108676,107261.48423689416,108540.7639790492,134910.6368315979,102225.50210064676,119852.31129554645,107202.00624489858,171958.65326626936,153552.93048059114,TASK2
2026-05-26T09:24:58.692+00:00,1418,108677,107260.21018746021,108539.48992961524,134906.68057282933,102222.61872561202,119848.08681584439,107199.39109079732,171951.74657723267,153546.56023342136,TASK2
2026-05-26T09:24:58.692+00:00,1418,108678,107257.8632542924,108537.67943831437,134899.77388379263,102220.27179244421,119843.32589427542,107194.36194829487,171947.5220975306,153540.99464905198,TASK2
