timestamp_utc,packet_index,sample_index,AF3,AF4,F3,F4,FC5,FC6,O2,O1,label
2026-05-10T12:32:42.412+00:00,1084,78952,207690.5766356679,47606.26525953594,506255.41135733266,506308.38499169174,507097.2898122418,222577.50899523604,506844.8268586191,506972.63413341454,TASK1
2026-05-10T12:32:42.412+00:00,1084,78953,207697.28215900448,47603.91832636813,506261.84865973576,506314.5540731614,507103.7271146449,222580.99586737106,506851.5323819557,506979.33965675114,TASK1
2026-05-10T12:32:42.412+00:00,1084,78954,207700.50081020605,47614.37894277322,506251.45509856404,506303.6240701227,507092.7971116063,222587.70139070766,506840.60237891704,506968.4096537125,TASK1
2026-05-10T12:32:42.412+00:00,1084,78955,207703.18301954068,47626.18066384562,506245.8895141947,506298.3267066868,507086.9633063034,222595.4797977781,506834.7685736142,506962.30762747617,TASK1
2026-05-10T12:32:42.412+00:00,1084,78956,207706.93811260918,47649.2476641235,506233.61840648873,506286.05559898086,507074.9604195309,222603.79464671548,506822.7656868417,506950.30474070366,TASK1
2026-05-10T12:32:42.412+00:00,1084,78957,207715.78940341348,47651.92987345813,506238.71460422454,506291.4200176502,507080.3248382002,222613.9870421871,506828.130105511,506955.4009384395,TASK1
2026-05-10T12:32:42.412+00:00,1084,78958,207727.05468261897,47638.38471631822,506244.81663046085,506298.05848575337,507086.2927539698,222625.5875975594,506834.70151838084,506961.3017989757,TASK1
2026-05-10T12:32:42.412+00:00,1084,78959,207731.34621755438,47661.18349566263,506234.1548483557,506287.3967036482,507075.63097186456,222633.90244649677,506824.0397362757,506950.90823780396,TASK1
2026-05-10T12:32:42.412+00:00,1084,78960,207735.90597342324,47681.56828660587,506231.80791518785,506285.0497704804,507073.2840386968,222641.1444117003,506821.69280310784,506948.5613046362,TASK1
2026-05-10T12:32:42.412+00:00,1084,78961,207740.46572929213,47712.41369395419,506220.0732493488,506273.31510464137,507063.426919392,222643.82662103494,506811.56746286957,506938.70418533136,TASK1
2026-05-10T12:32:42.412+00:00,1084,78962,207745.83014796142,47691.55951637739,506295.4433316521,506348.68518694467,507147.11185063265,222648.38637690383,506895.5206150437,507022.6573375055,TASK1
2026-05-10T12:32:42.412+00:00,1084,78963,207739.45990079164,47586.75218662646,506428.21269371663,506481.72276994266,507278.80832896335,222640.13858319982,507027.2170933744,507154.3538158362,TASK1
2026-05-10T12:32:42.412+00:00,1084,78964,207713.24130454558,47507.42584555457,506444.8423915914,506498.35246781737,507287.3913988342,222614.9928706876,507035.80016324524,507163.20510664047,TASK1
2026-05-10T12:32:42.412+00:00,1084,78965,207688.36381296683,47430.24527195039,506415.40514414373,506468.64699943626,507256.6130467192,222596.01623964505,507005.0218111303,507132.4267545255,TASK1
2026-05-10T12:32:42.412+00:00,1084,78966,207664.8274260554,47402.95379197047,506381.4081408272,506434.91821705323,507223.1524852696,222574.35739926784,506971.2930287472,507098.6979721425,TASK1
2026-05-10T12:32:42.412+00:00,1084,78967,207645.04613221245,47398.99753320188,506372.0874633893,506425.8657605488,507213.83180783177,222553.7714426245,506961.9723513094,507089.3772947046,TASK1
2026-05-10T12:32:42.412+00:00,1084,78968,207628.48348957102,47359.36789028262,506374.5014517905,506428.01152801653,507215.709354366,222543.10966051932,506964.11811877706,507091.5230621723,TASK1
2026-05-10T12:32:42.412+00:00,1084,78969,207611.11618412926,47339.85481737313,506361.9621231511,506415.20397844363,507203.17002572655,222531.9114365472,506951.31056920416,507078.71551259945,TASK1
2026-05-10T12:32:42.412+00:00,1084,78970,207595.35820428826,47348.70610817744,506351.5685619794,506404.5421963385,507192.24002268794,222522.59075910936,506941.18522896594,507068.0537304942,TASK1
2026-05-10T12:32:42.412+00:00,1084,78971,207583.89175938268,47368.28623632029,506336.88346587226,506389.3206583644,507177.2867056473,222514.34296540535,506925.96369099186,507053.10041345365,TASK1
2026-05-10T12:32:42.412+00:00,1084,78972,207579.9355006141,47371.50488752185,506338.7610124065,506391.7346467656,507179.7006940485,222509.31382290288,506928.37767939304,507055.51440185483,TASK1
2026-05-10T12:32:42.412+00:00,1084,78973,207576.51568371244,47355.746907680856,506343.8572101423,506397.36728636833,507185.0651127178,222506.69866880163,506933.7420980623,507060.8788205241,TASK1
2026-05-10T12:32:42.412+00:00,1084,78974,207571.21832027653,47360.03844261628,506334.8047536379,506388.04660893045,507176.01265621337,222502.74241003304,506924.4214206244,507051.5581430862,TASK1
2026-05-10T12:32:42.412+00:00,1084,78975,207565.3845149737,47379.35034982566,506331.11671580275,506384.09035016183,507172.32461837825,222502.00480246602,506920.7333827893,507047.60188431764,TASK1
2026-05-10T12:32:42.412+00:00,1084,78976,207558.74604687048,47408.5864315732,506318.8456080968,506371.8192424559,507159.7852897388,222503.6141280668,506908.1940541499,507035.3307766117,TASK1
2026-05-10T12:32:42.412+00:00,1084,78977,207557.74021837,47409.3910943736,506329.8426663688,506383.08452166134,507171.0505689443,222507.63744206875,506919.45933335536,507046.59605581715,TASK1
2026-05-10T12:32:42.412+00:00,1084,78978,207558.2766602369,47374.32120732322,506344.59481770935,506397.8366730019,507185.53449935134,222514.6111863388,506934.21148469584,507061.0799862242,TASK1
2026-05-10T12:32:42.412+00:00,1084,78979,207551.6381921337,47384.7818237283,506330.17794253567,506383.4197978282,507171.3858451111,222517.02517473997,506919.5263885887,507046.6631110505,TASK1
2026-05-10T12:32:42.412+00:00,1084,78980,207545.53616589739,47405.70305653847,506326.758125634,506379.9999809265,507167.9660282095,222519.43916314116,506916.10657168704,507042.9750732154,TASK1
2026-05-10T12:32:42.412+00:00,1084,78981,207545.53616589739,47421.528091612825,506314.48701792804,506367.4606522871,507155.963141437,222521.04848874194,506904.1036849146,507030.9721864429,TASK1
2026-05-10T12:32:42.412+00:00,1084,78982,207548.218375232,47430.91582428406,506320.38787846424,506373.3615128233,507161.5957810397,222523.73069807657,506910.0045454508,507036.60482604563,TASK1
2026-05-10T12:32:42.412+00:00,1084,78983,207555.99678230248,47412.40857987506,506331.11671580275,506384.2915158619,507172.52578407835,222525.74235507756,506921.06865895615,507047.60188431764,TASK1
2026-05-10T12:32:42.412+00:00,1084,78984,207564.5798521733,47410.329867640714,506319.11382903025,506372.2886290894,507160.7911182393,222527.08345974487,506908.7975512502,507035.59899754514,TASK1
2026-05-10T12:32:42.412+00:00,1084,78985,207573.16292204414,47425.08201898122,506313.28002372745,506366.4548237866,507155.22553386993,222530.03389001297,506903.2319668808,507030.0334131758,TASK1
2026-05-10T12:32:42.412+00:00,1084,78986,207582.81887564884,47449.75834485988,506300.2042532211,506353.6472742137,507142.1497633636,222528.49161964556,506890.4244173079,507016.9576426694,TASK1
2026-05-10T12:32:42.412+00:00,1084,78987,207597.30280605587,47459.41429846457,506307.7144393581,506360.8892394173,507149.12350763363,222528.49161964556,506897.9346034449,507024.1996078729,TASK1
2026-05-10T12:32:42.412+00:00,1084,78988,207612.85962019677,47444.9974232909,506314.9564045616,506368.13120462076,507156.6336937706,222528.49161964556,506905.4447895819,507031.4415730765,TASK1
2026-05-10T12:32:42.412+00:00,1084,78989,207625.46600406955,47457.872028097154,506302.4170759222,506355.32365504786,507143.5579232643,222526.4129074112,506892.36901907553,507018.902244437,TASK1
2026-05-10T12:32:42.412+00:00,1084,78990,207636.1948414081,47474.23350503844,506298.46081715357,506351.0991753458,507139.06522262876,222526.94934927815,506887.87631844,507014.67776473495,TASK1
2026-05-10T12:32:42.412+00:00,1084,78991,207645.85079501284,47502.66492398559,506289.9448025161,506342.58316070837,507132.69497545896,222527.2175702116,506881.50607127027,507008.03929663176,TASK1
2026-05-10T12:32:42.412+00:00,1084,78992,207652.82453928288,47491.19847908002,506375.7755012245,506428.6820803502,507225.4994184374,222527.2175702116,506974.04229331523,507100.84373961017,TASK1
2026-05-10T12:32:42.412+00:00,1084,78993,207653.09276021636,47403.82551000422,506452.75490912853,506505.66148825426,507295.7733030049,222513.60535783833,507044.3161778827,507171.11762417766,TASK1
2026-05-10T12:32:42.412+00:00,1084,78994,207647.52717584698,47339.78776213977,506424.6587663482,506477.8335664074,507266.33605555724,222491.94651746113,507014.87893043505,507141.41215579654,TASK1
2026-05-10T12:32:42.412+00:00,1084,78995,207643.83913801186,47306.595421623635,506403.26814690453,506456.44294696365,507244.67721518007,222476.18853762012,506993.4883109913,507120.0215363528,TASK1
2026-05-10T12:32:42.412+00:00,1084,78996,207640.68754204363,47310.35051469213,506379.4635390596,506432.6383391188,507220.87260733516,222461.23522057955,506969.41548221296,507095.94870757445,TASK1
2026-05-10T12:32:42.412+00:00,1084,78997,207649.2706119145,47293.78787205075,506382.4139693277,506435.5887693869,507223.8230376033,222451.37810127475,506972.0976915476,507098.6309169091,TASK1
2026-05-10T12:32:42.412+00:00,1084,78998,207653.5621468499,47274.0065782078,506383.75507399504,506436.9298740542,507225.7005841375,222442.59386570382,506973.9752380818,507100.24024250987,TASK1
2026-05-10T12:32:42.412+00:00,1084,78999,207655.43969338416,47278.566334076684,506369.33819882135,506422.5129988805,507211.28370896383,222433.00496733247,506959.82658384164,507086.0915882697,TASK1
2026-05-10T12:32:42.412+00:00,1084,79000,207664.29098418847,47281.24854341132,506363.23617258505,506416.1427517108,507204.64524086064,222425.02539456193,506953.4563366719,507079.7213410999,TASK1
2026-05-10T12:32:42.412+00:00,1084,79001,207682.530007664,47300.82867155417,506346.4053090102,506399.58010906936,507187.8143772858,222416.50937992448,506936.89369403047,507062.89047752507,TASK1
2026-05-10T12:32:42.412+00:00,1084,79002,207701.30547300645,47309.14352049155,506353.1108323468,506406.55385333946,507195.0563424893,222412.01667928894,506944.135659234,507070.13244272856,TASK1
2026-05-10T12:32:42.412+00:00,1084,79003,207718.4716127481,47295.2630871848,506359.2799138165,506412.45471387566,507201.22542395897,222407.52397865342,506950.30474070366,507076.30152419826,TASK1
2026-05-10T12:32:42.412+00:00,1084,79004,207735.10131062288,47304.650819856026,506346.2041433101,506399.37894336926,507187.6132115857,222400.8855105502,506936.69252833043,507062.689311825,TASK1
2026-05-10T12:32:42.412+00:00,1084,79005,207752.26745036454,47319.671192129994,506341.71144267457,506394.6180218003,507182.8522900167,222397.46569364856,506931.9316067614,507057.6601693225,TASK1
2026-05-10T12:32:42.412+00:00,1084,79006,207772.11579944086,47336.83733187167,506328.6356721682,506381.8104722274,507170.0447404438,222397.26452794846,506918.85583625507,507044.58439881617,TASK1
2026-05-10T12:32:42.412+00:00,1084,79007,207791.6959275837,47356.14923908105,506333.73186990403,506387.1748908967,507175.1409381796,222398.60563261577,506924.2202549243,507049.9488174854,TASK1
2026-05-10T12:32:42.412+00:00,1084,79008,207812.08071852694,47346.56034070973,506342.31493977486,506395.75796076754,507183.9922289839,222396.79514131488,506933.07154572866,507058.53188735625,TASK1
2026-05-10T12:32:42.412+00:00,1084,79009,207831.92906760325,47355.14341058057,506331.38493673626,506384.55973679543,507172.7940050118,222392.30244067937,506921.87332175655,507047.8701052511,TASK1
2026-05-10T12:32:42.412+00:00,1084,79010,207854.057294614,47379.01507365883,506323.8076953659,506376.7142744916,507165.3508741082,222393.1741587131,506913.6925832859,507040.69519528095,TASK1
2026-05-10T12:32:42.412+00:00,1084,79011,207878.4653995592,47398.59520180168,506309.6590411257,506362.83384118485,507151.7386617349,222391.36366741225,506899.54392904567,507026.54654104076,TASK1
2026-05-10T12:32:42.412+00:00,1084,79012,207906.36037663944,47408.251155406375,506316.6327853957,506369.8075854549,507158.4441850715,222395.65520234767,506906.5176733157,507033.5202853108,TASK1
2026-05-10T12:32:42.412+00:00,1084,79013,207931.573144385,47399.46691983544,506321.7289831315,506374.63556225726,507163.2721618739,222402.36072568427,506911.6138710515,507038.6164830466,TASK1
2026-05-10T12:32:42.412+00:00,1084,79014,207952.76259812864,47426.82545504873,506305.7027823571,506358.6093614828,507147.51418203284,222403.70183035158,506895.5876702771,507022.3220613387,TASK1
2026-05-10T12:32:42.412+00:00,1084,79015,207975.82959840653,47452.306443727786,506300.4054189212,506353.5802189804,507142.21681859693,222404.50649315197,506890.2903068412,507017.29291883623,TASK1
2026-05-10T12:32:42.412+00:00,1084,79016,208003.9927964202,47473.22767653795,506290.0118577495,506343.18665780866,507132.0914783587,222405.5793768858,506880.1649666029,507007.16757859796,TASK1
2026-05-10T12:32:42.412+00:00,1084,79017,208036.98397123624,47458.54258043081,506298.5949276203,506352.03794861294,507140.942769163,222413.8942258232,506889.01625740726,507016.28709033574,TASK1
2026-05-10T12:32:42.412+00:00,1084,79018,208060.0509715141,47460.688347898526,506301.0089160215,506354.4519370141,507143.6249784976,222421.67263289363,506891.6984667419,507018.7010787369,TASK1
2026-05-10T12:32:42.412+00:00,1084,79019,208079.3628787235,47483.48712724294,506289.006029249,506342.4490502416,507131.3538707917,222430.25570276447,506879.6955799694,507006.6981919644,TASK1
2026-05-10T12:32:42.412+00:00,1084,79020,208101.35699526753,47501.18970885154,506282.6357820792,506336.07880307187,507124.7154026884,222443.13030757074,506873.32533279964,507000.32794479467,TASK1
2026-05-10T12:32:42.412+00:00,1084,79021,208128.1790886139,47519.69695326054,506274.65620930865,506328.09923030133,507118.6133764521,222452.51804024196,506867.22330656333,506994.22591855837,TASK1
2026-05-10T12:32:42.412+00:00,1084,79022,208144.80878648863,47508.23050835496,506361.2915708174,506415.00281274354,507210.88137756364,222458.41890077817,506959.22308674135,507086.4939196699,TASK1
2026-05-10T12:32:42.412+00:00,1084,79023,208147.75921675673,47437.21901622045,506417.6179668448,506471.32920877094,507260.7704711879,222454.9990838765,507009.1121803656,507136.11479236063,TASK1
2026-05-10T12:32:42.412+00:00,1084,79024,208147.55805105664,47398.12581516812,506386.83961472986,506440.55085665593,507229.18745627254,222444.33730177133,506977.2609445168,507104.5317774453,TASK1
2026-05-10T12:32:42.412+00:00,1084,79025,208155.3364581271,47380.490288792884,506365.7172162196,506419.69667907915,507207.7968368288,222435.55306620037,506956.1385460065,507083.40937893506,TASK1
2026-05-10T12:32:42.412+00:00,1084,79026,208164.99241173177,47388.26869586333,506344.32659677585,506398.3060596354,507185.86977551813,222428.37815623023,506935.01614749624,507062.01875949133,TASK1
2026-05-10T12:32:42.823+00:00,1085,79027,208174.380144403,47386.45820456245,506345.6677014432,506399.9153852362,507187.7473220524,222422.5443509274,506936.3572521636,507063.3598641586,TASK1
2026-05-10T12:32:42.823+00:00,1085,79028,208183.76787707425,47375.528201523804,506345.93592237664,506400.18360616965,507188.0155429859,222418.5880921588,506936.625473097,507063.6280850921,TASK1
2026-05-10T12:32:42.823+00:00,1085,79029,208191.5462841447,47379.55151552576,506336.61524493876,506390.86292873183,507178.42664461455,222414.36361245674,506927.30479565915,507054.30740765424,TASK1
2026-05-10T12:32:42.823+00:00,1085,79030,208198.7882493482,47393.23078313241,506331.31788150285,506385.83378622937,507173.3975021121,222414.16244675667,506922.27565315674,507049.01004421833,TASK1
2026-05-10T12:32:42.823+00:00,1085,79031,208209.51708668674,47418.97999274492,506316.0963435288,506370.0758063884,507157.90774320456,222418.4539816921,506907.05411518266,507033.5202853108,TASK1
2026-05-10T12:32:42.823+00:00,1085,79032,208232.58408696463,47417.974164244435,506323.0700877989,506377.04955065844,507164.8814874746,222420.5997491598,506914.0278594527,507040.7622505143,TASK1
2026-05-10T12:32:42.823+00:00,1085,79033,208255.91930817597,47412.1403589416,506327.3616227343,506381.34108559386,507169.1730224101,222413.96128105657,506918.3193943881,507045.0537854497,TASK1
2026-05-10T12:32:42.823+00:00,1085,79034,208273.62188978458,47424.746742814394,506317.5045034295,506371.75218722253,507159.5841240387,222407.32281295332,506908.7304960168,507035.19666614494,TASK1
2026-05-10T12:32:42.823+00:00,1085,79035,208283.54606432273,47438.42601042104,506314.62112839473,506368.8688121878,507156.4325280705,222407.12164725323,506905.3106791151,507032.3132911102,TASK1
2026-05-10T12:32:42.823+00:00,1085,79036,208292.93379699395,47456.93325483003,506303.1546834892,506357.4023672822,507146.30718783225,222411.68140312211,506894.9171179434,507021.651509005,TASK1
2026-05-10T12:32:42.823+00:00,1085,79037,208303.6626343325,47462.02945256584,506333.73186990403,506387.97955369705,507178.22547891445,222417.58226365832,506926.56718809216,507053.5698000872,TASK1
2026-05-10T12:32:42.823+00:00,1085,79038,208314.6596926045,47432.592205118206,506351.7026724461,506405.68213530566,507193.7822930553,222417.8504845918,506942.3922231665,507069.39483516157,TASK1
2026-05-10T12:32:42.823+00:00,1085,79039,208321.90165780805,47431.318155684254,506335.1400298047,506389.1194926643,507177.21965041396,222417.8504845918,506925.56135959167,507052.5639715867,TASK1
2026-05-10T12:32:42.823+00:00,1085,79040,208329.68006487848,47441.77877208933,506326.3557942338,506380.33525709336,507168.435414843,222418.6551473922,506917.0453449542,507043.7797360158,TASK1
2026-05-10T12:32:42.823+00:00,1085,79041,208341.21356501742,47467.66209216858,506313.9505760611,506367.1924313536,507155.5608100368,222419.66097589265,506903.96957444784,507030.7710207428,TASK1
2026-05-10T12:32:42.823+00:00,1085,79042,208354.35639075714,47475.708720172486,506321.4607621981,506374.43439655716,507163.3392171072,222422.61140616075,506910.9433187179,507038.0129859463,TASK1
2026-05-10T12:32:42.823+00:00,1085,79043,208366.42633276302,47463.70583339999,506329.50739020196,506382.2128036276,507171.11762417766,222423.41606896115,506918.9899467218,507046.0596139502,TASK1
2026-05-10T12:32:42.823+00:00,1085,79044,208377.95983290195,47454.116935028665,506323.9418058326,506376.9154401917,507165.5520398083,222425.56183642885,506913.4243623524,507040.7622505143,TASK1
2026-05-10T12:32:42.823+00:00,1085,79045,208385.20179810547,47461.89534209911,506317.57155866286,506370.8134139554,507159.450013572,222430.12159229774,506907.05411518266,507034.39200334455,TASK1
2026-05-10T12:32:42.823+00:00,1085,79046,208397.00351917787,47481.74369117542,506303.4229044226,506356.6647597152,507145.56958026526,222436.55889470087,506893.1736818759,507020.5115700378,TASK1
2026-05-10T12:32:42.823+00:00,1085,79047,208416.58364732072,47488.44921451202,506311.2013114931,506364.7113877191,507153.61620826914,222440.58220870284,506901.2203098798,507028.5581980417,TASK1
2026-05-10T12:32:42.823+00:00,1085,79048,208432.67690332854,47478.59209520723,506316.5657301624,506370.34402732184,507159.2488478719,222443.80085990438,506907.121170416,507034.19083764445,TASK1
2026-05-10T12:32:42.823+00:00,1085,79049,208446.62439186865,47487.97982787845,506306.17216899066,506359.6822452167,507148.31884483324,222446.75129017248,506896.1911673774,507023.5290555393,TASK1
2026-05-10T12:32:42.823+00:00,1085,79050,208458.42611294106,47498.708665217004,506305.16634049016,506358.6764167162,507147.31301633274,222451.04282510793,506894.9171179434,507022.2550061053,TASK1
2026-05-10T12:32:42.823+00:00,1085,79051,208464.32697347726,47519.629898027175,506298.5278723869,506352.03794861294,507142.5520947638,222456.67546471066,506890.4244173079,507017.7623054698,TASK1
2026-05-10T12:32:42.823+00:00,1085,79052,208471.03249681383,47492.338418047235,506403.4022573712,506457.1805545307,507257.88709615316,222457.21190657758,507005.2229768304,507132.8290859257,TASK1
2026-05-10T12:32:42.823+00:00,1085,79053,208469.22200551297,47374.12004162312,506513.9092819583,506567.1511372508,507359.81105086935,222440.38104300274,507107.41515248,507235.0212615754,TASK1
2026-05-10T12:32:42.823+00:00,1085,79054,208453.46402567197,47297.20768895241,506482.5944879764,506535.5681223355,507324.741163819,222418.72220262553,507072.61348636315,507200.2195954585,TASK1
2026-05-10T12:32:42.823+00:00,1085,79055,208437.70604583097,47259.992034434326,506453.15724052873,506506.3990958213,507295.5721373048,222401.35489718377,507043.1762389155,507170.51412707736,TASK1
2026-05-10T12:32:42.823+00:00,1085,79056,208427.0442637258,47247.452705794894,506426.6704233492,506480.44872050866,507269.0853201253,222381.84182427428,507016.68942173594,507144.29553083127,TASK1
2026-05-10T12:32:42.823+00:00,1085,79057,208423.35622589066,47228.47607475234,506426.9386442827,506480.71694144217,507268.8841544252,222367.69317003406,507016.68942173594,507144.29553083127,TASK1
2026-05-10T12:32:42.823+00:00,1085,79058,208417.7906415213,47202.25747850627,506427.4750861496,506480.71694144217,507269.1523753586,222356.2267251285,507017.2258636029,507144.56375176477,TASK1
2026-05-10T12:32:42.823+00:00,1085,79059,208409.00640595038,47205.7443506413,506411.7171063086,506465.22718253464,507253.93083738454,222347.44248955758,507001.46788376186,507129.07399285724,TASK1
2026-05-10T12:32:42.823+00:00,1085,79060,208401.0268331798,47225.860920651074,506402.9328707377,506456.1747260302,507244.6101599467,222343.2180098555,506992.4154272575,507119.75331541937,TASK1
2026-05-10T12:32:42.823+00:00,1085,79061,208400.02100467932,47251.61013026359,506388.24777463055,506441.7578508565,507230.4615057065,222341.6757394881,506977.9985520838,507105.3364402457,TASK1
2026-05-10T12:32:42.823+00:00,1085,79062,208406.65947278254,47257.51099079978,506395.48973983404,506448.5304294265,507237.09997380973,222344.49205928948,506984.9052411205,507112.176074049,TASK1
2026-05-10T12:32:42.823+00:00,1085,79063,208412.82855425222,47249.79963896271,506401.1223794368,506453.8948480958,507242.7326134125,222345.56494302332,506990.53788072325,507117.8087136517,TASK1
2026-05-10T12:32:42.823+00:00,1085,79064,208416.58364732072,47256.77338323276,506391.26526013203,506444.30594972445,507233.1437150411,222350.66114075913,506980.6807614184,507107.95159434696,TASK1
2026-05-10T12:32:42.823+00:00,1085,79065,208420.60696132266,47261.60136003511,506385.4314548292,506439.00858628855,507227.57813067175,222359.51243156343,506975.11517704907,507102.65423091105,TASK1
2026-05-10T12:32:42.823+00:00,1085,79066,208421.94806599,47278.76749977678,506377.9883239255,506431.029013518,507221.74432536896,222367.29083863387,506969.2813717462,507096.55220467475,TASK1
2026-05-10T12:32:42.823+00:00,1085,79067,208423.02094972384,47265.691729270424,506453.3584062288,506506.9355376882,507303.2834891419,222371.5823735693,507050.5523145857,507178.0913684477,TASK1
2026-05-10T12:32:42.823+00:00,1085,79068,208416.6507025541,47196.2895627367,506511.8305697239,506565.4077011833,507354.7819083669,222361.45703333104,507102.5871756777,507230.39445047313,TASK1
2026-05-10T12:32:42.823+00:00,1085,79069,208405.1842576485,47159.61035008554,506485.3437525444,506538.92088400375,507326.95398652006,222347.84482095778,507075.02747476427,507202.56652862625,TASK1
2026-05-10T12:32:42.825+00:00,1085,79070,208396.66824301102,47145.99813771226,506466.3671215018,506519.9442529612,507308.5137973444,222339.8652481872,507056.3190646552,507183.8581185172,TASK1
2026-05-10T12:32:42.825+00:00,1085,79071,208386.2746818393,47161.01850998623,506445.2447229916,506498.55363351747,507287.3913988342,222330.8127916828,507035.19666614494,507162.4674990735,TASK1
2026-05-10T12:32:42.825+00:00,1085,79072,208385.26885333884,47156.25758841725,506450.8773625943,506504.4544940537,507292.75581750344,222325.5154282469,507040.5610848142,507167.5636968093,TASK1
2026-05-10T12:32:42.825+00:00,1085,79073,208380.7761527033,47152.30132964865,506454.6324556628,506508.2095871222,507296.24268963846,222319.4134020106,507043.7797360158,507171.31878987775,TASK1
2026-05-10T12:32:42.825+00:00,1085,79074,208374.40590553355,47163.83482978759,506442.09312702337,506495.67025848274,507283.70336099906,222314.1160385747,507031.2404073764,507159.0476821718,TASK1
2026-05-10T12:32:42.825+00:00,1085,79075,208370.71786769843,47170.80857405765,506435.4546589201,506489.0317903795,507277.0648928958,222314.65248044164,507024.3337183397,507151.87277220166,TASK1
2026-05-10T12:32:42.825+00:00,1085,79076,208365.68872519597,47195.75312086977,506422.6471093473,506475.95601987315,507263.98912238947,222314.18309380807,507011.5261687668,507138.5287807618,TASK1
2026-05-10T12:32:42.825+00:00,1085,79077,208366.76160892984,47209.96883034335,506431.49840015155,506484.8073106775,507272.5721922603,222314.18309380807,507020.37745957106,507147.38007156615,TASK1
2026-05-10T12:32:42.825+00:00,1085,79078,208369.71203919794,47208.6947809094,506433.91238855274,506487.4895200121,507275.2544015949,222311.03149783987,507023.3278898392,507150.0622809008,TASK1
2026-05-10T12:32:42.825+00:00,1085,79079,208372.12602759912,47224.51981598375,506422.1777227137,506475.4866332396,507263.5197357559,222308.41634373862,507011.5932240001,507138.3276150617,TASK1
2026-05-10T12:32:42.825+00:00,1085,79080,208375.61289973414,47244.90460692699,506417.1485802113,506470.45749073714,507258.49059325346,222311.63499494016,507006.56408149767,507133.29847255925,TASK1
2026-05-10T12:32:42.825+00:00,1085,79081,208378.56333000225,47269.84915373912,506405.68213530566,506459.25926676503,507247.29236928135,222315.92652987558,506995.0976365921,507121.8320276537,TASK1
2026-05-10T12:32:42.825+00:00,1085,79082,208386.0735161392,47278.16400267649,506415.0698679769,506468.91522036976,507256.6801019526,222325.3142625468,507004.48536926333,507131.2197603249,TASK1
2026-05-10T12:32:42.825+00:00,1085,79083,208394.9248069435,47272.06197644019,506420.9707285131,506474.81608090596,507262.31274155533,222330.4104602826,507010.1180088661,507137.38884179463,TASK1
2026-05-10T12:32:42.825+00:00,1085,79084,208401.6303302801,47289.22811618187,506408.9678417406,506462.81319413346,507250.8462966497,222335.23843708498,506998.65156396053,507125.922396889,TASK1
2026-05-10T12:32:42.825+00:00,1085,79085,208412.62738855212,47305.85781405662,506404.2069201716,506458.05227256444,507245.8171541473,222340.60285575423,506993.8906423915,507121.16147532006,TASK1
2026-05-10T12:32:42.825+00:00,1085,79086,208424.96555149145,47323.82861659868,506393.27691713296,506447.3904904593,507234.88715110865,222345.4308325566,506982.9606393529,507109.96325134794,TASK1
2026-05-10T12:32:42.825+00:00,1085,79087,208442.60107786668,47332.679907402984,506405.68213530566,506458.9910458316,507247.0241483479,222355.0867861613,506994.9635261254,507122.0331933538,TASK1
2026-05-10T12:32:42.825+00:00,1085,79088,208455.47568267296,47327.918985834,506411.3147749084,506464.0872435674,507252.38856701716,222359.3783210967,507000.32794479467,507127.39761202305,TASK1
2026-05-10T12:32:42.825+00:00,1085,79089,208463.7905316103,47343.74402090836,506399.58010906936,506452.35257772834,507240.6539011781,222360.1829838971,506988.5932789556,507115.9311671175,TASK1
2026-05-10T12:32:42.825+00:00,1085,79090,208472.37360148117,47362.78770718428,506396.96495496813,506450.273865494,507238.3069680103,222365.01096069944,506986.5145667213,507113.85245488316,TASK1
2026-05-10T12:32:42.825+00:00,1085,79091,208479.6155666847,47388.805137730255,506385.2302891291,506438.2709787215,507226.57230217126,222369.30249563485,506974.7799008822,507102.1177890441,TASK1
2026-05-10T12:32:42.825+00:00,1085,79092,208493.83127615825,47390.146242397575,506393.8133589999,506446.85404859233,507234.88715110865,222378.42200737263,506983.3629707531,507110.4326379815,TASK1
2026-05-10T12:32:42.825+00:00,1085,79093,208503.21900882947,47401.14330066959,506397.3002311349,506450.3409207274,507238.6422441771,222382.9817632415,506987.1180638216,507114.18773105,TASK1
2026-05-10T12:32:42.825+00:00,1085,79094,208505.63299723066,47433.32981268523,506389.3206583644,506442.09312702337,507230.9308923401,222386.73685631,506978.8702701176,507106.2081582794,TASK1
2026-05-10T12:32:42.825+00:00,1085,79095,208512.87496243417,47451.83705709422,506385.9008414627,506438.9415310552,507227.5110754384,222391.29661217888,506975.4504532159,507102.7883413778,TASK1
2026-05-10T12:32:42.825+00:00,1085,79096,208520.1169276377,47472.490068970925,506381.4081408272,506434.71705135313,507225.1641422706,222391.56483311235,506973.1035200481,507100.1731872765,TASK1
2026-05-10T12:32:42.825+00:00,1085,79097,208523.0673579058,47444.12570525714,506479.84522340837,506533.42235486774,507331.6478528557,222391.36366741225,507079.5872306332,507206.65689786157,TASK1
2026-05-10T12:32:42.825+00:00,1085,79098,208514.81956420178,47342.26880577431,506565.13948024984,506618.7166117092,507408.8954816932,222378.55611783935,507156.8348594707,507284.1727476326,TASK1
2026-05-10T12:32:42.825+00:00,1085,79099,208493.96538662497,47299.68873258695,506531.1424769333,506584.7196083927,507372.752710909,222354.75150999444,507120.6920886865,507248.0299768484,TASK1
2026-05-10T12:32:42.825+00:00,1085,79100,208478.47562771745,47275.61590380858,506508.9471946892,506562.52432614856,507350.8256495983,222334.43377428458,507098.4968064424,507226.1029155377,TASK1
2026-05-10T12:32:42.825+00:00,1085,79101,208468.61850841268,47275.61590380858,506484.3379240439,506537.6468345698,507325.9481580196,222315.18892230856,507073.61931486364,507201.22542395897,TASK1
2026-05-10T12:32:42.825+00:00,1085,79102,208460.9071565756,47278.83455501015,506485.94724964467,506538.98793923715,507327.2892626869,222301.04026806835,507075.22864046437,507202.83474955976,TASK1
2026-05-10T12:32:42.825+00:00,1085,79103,208454.8051303393,47258.785040233735,506487.82479617896,506540.8654857714,507329.70325108804,222289.03738129584,507077.3744079321,507204.98051702743,TASK1
2026-05-10T12:32:42.825+00:00,1085,79104,208446.02089476836,47268.17277290497,506473.6761419387,506526.98505246465,507315.55459684785,222279.44848292452,507063.2257536919,507190.83186278725,TASK1
2026-05-10T12:32:42.825+00:00,1085,79105,208439.11420573166,47284.53424984625,506466.769452902,506520.07836342795,507308.64790781116,222270.6642473536,507056.3190646552,507183.6569528171,TASK1
2026-05-10T12:32:42.825+00:00,1085,79106,208434.08506322923,47308.67413385798,506455.30300799647,506508.6119185224,507296.9132419721,222257.0520349803,507044.8526197496,507171.92228697805,TASK1
2026-05-10T12:32:42.825+00:00,1085,79107,208437.57193536425,47318.33008746267,506461.74031039956,506515.0492209255,507303.6187653087,222247.19491567553,507051.5581430862,507178.62781031465,TASK1
2026-05-10T12:32:42.825+00:00,1085,79108,208442.13169123314,47316.78781709526,506462.81319413346,506516.1221046593,507304.95986997604,222241.36111037267,507052.3628058866,507179.7006940485,TASK1
2026-05-10T12:32:42.825+00:00,1085,79109,208444.81390056777,47337.709049905425,506450.273865494,506503.3145550865,507292.4205413366,222235.52730506985,507039.8234772472,507167.1613654091,TASK1
2026-05-10T12:32:42.825+00:00,1085,79110,208446.691447102,47362.385375784084,506444.70828112465,506497.48074978363,507286.5867360338,222231.03460443433,507033.98967194435,507161.32756010623,TASK1
2026-05-10T12:32:42.825+00:00,1085,79111,208449.91009830358,47395.91299246704,506430.5596268844,506483.3320955434,507271.90163992665,222228.41945033305,507019.84101770417,507147.17890586605,TASK1
2026-05-10T12:32:42.825+00:00,1085,79112,208459.56605190827,47414.956678742965,506439.9473595557,506492.45160728117,507281.2893725979,222225.53607529833,507028.9605294419,507156.5666385373,TASK1
2026-05-10T12:32:42.825+00:00,1085,79113,208467.61267991218,47406.440664105496,506448.79865035997,506501.3028980855,507290.14066340216,222225.8042962318,507037.5435993127,507165.1497084081,TASK1
2026-05-10T12:32:42.825+00:00,1085,79114,208472.64182241462,47414.28612640931,506439.0756415219,506492.5186625146,507281.0882068978,222229.29116836682,507028.89347420854,507155.8960862036,TASK1
2026-05-10T12:32:42.825+00:00,1085,79115,208481.49311321892,47441.91288255607,506431.90073155175,506485.6119734779,507274.1815178611,222223.9938049309,507021.7185642384,507148.9893971669,TASK1
2026-05-10T12:32:42.825+00:00,1085,79116,208496.78170642635,47469.80785963629,506419.3614029123,506472.5362029715,507261.3739682882,222219.23288336192,507008.9110146655,507135.91362666053,TASK1
2026-05-10T12:32:42.825+00:00,1085,79117,208514.48428803496,47473.56295270478,506427.9444727832,506481.11927284236,507269.6888172256,222220.57398802924,507017.49408453633,507144.76491746487,TASK1
2026-05-10T12:32:42.825+00:00,1085,79118,208527.3588928412,47465.583379934236,506433.040670519,506486.2154705782,507274.7850149614,222221.37865082963,507022.59028227214,507149.8611152007,TASK1
2026-05-10T12:32:42.825+00:00,1085,79119,208532.7233115105,47492.4054732806,506421.5742256134,506474.4808047391,507263.3185700558,222218.76349672835,507011.1238373666,507138.1264493616,TASK1
2026-05-10T12:32:42.825+00:00,1085,79120,208535.94196271204,47527.00597369743,506415.7404203106,506468.91522036976,507257.7529856864,222219.03171766183,507005.8264739307,507133.09730685916,TASK1
2026-05-10T12:32:42.825+00:00,1085,79121,208541.30638138132,47563.48402064849,506401.3235451369,506453.9619033291,507242.79966864584,222222.2503688634,506990.87315689004,507118.1439898186,TASK1
2026-05-10T12:32:42.825+00:00,1085,79122,208554.71742805452,47569.116660251224,506412.05238247546,506464.42251973425,507253.2602850509,222226.81012473226,507001.33377329516,507128.3363852902,TASK1
2026-05-10T12:32:42.825+00:00,1085,79123,208568.66491659463,47568.11083175073,506416.0756964774,506468.1776128027,507257.0153781194,222227.61478753266,507005.0888663636,507132.35969929217,TASK1
2026-05-10T12:32:42.825+00:00,1085,79124,208578.3208701993,47588.763843627436,506404.3410306384,506456.71116789716,507245.5489332138,222229.49233406692,506993.3542005246,507120.6250334531,TASK1
2026-05-10T12:32:42.825+00:00,1085,79125,208586.09927726976,47610.75796017146,506397.9707834686,506450.60914166085,507239.4469069775,222233.51564806886,506987.2521742883,507114.5230072168,TASK1
2026-05-10T12:32:42.825+00:00,1085,79126,208592.5365796729,47643.74913498749,506389.45476883114,506442.09312702337,507233.07665980776,222235.66141553657,506980.8819271185,507108.4209809805,TASK1
2026-05-10T12:32:43.168+00:00,1086,79127,208597.6327774087,47632.01446914845,506480.3816652753,506533.02002346754,507329.90441678814,222236.73429927044,507077.70968409895,507205.24873796094,TASK1
2026-05-10T12:32:43.168+00:00,1086,79128,208597.16339077512,47543.83683727227,506537.78094503656,506590.15108229534,507380.32995227934,222224.9996334314,507127.86699865665,507255.13783158513,TASK1
2026-05-10T12:32:43.168+00:00,1086,79129,208588.3791552042,47502.86608968569,506507.0025929216,506559.3727301804,507348.47871643055,222207.0958861227,507096.0157628078,507223.5548166698,TASK1
2026-05-10T12:32:43.168+00:00,1086,79130,208579.86314056674,47491.66786571358,506488.025961879,506540.6643200713,507329.77030632144,222192.94723188248,507077.30735269876,507204.3099646938,TASK1
2026-05-10T12:32:43.168+00:00,1086,79131,208572.68823059657,47513.393761324136,506464.22135403415,506516.59149129293,507305.6974775431,222183.0901125777,507053.7709657873,507180.7735777823,TASK1
2026-05-10T12:32:43.168+00:00,1086,79132,208574.02933526388,47507.023514154374,506471.73154017114,506524.1016774299,507312.9394427466,222174.57409794023,507061.01293099084,507188.2837639193,TASK1
2026-05-10T12:32:43.168+00:00,1086,79133,208577.78442833238,47485.90111564411,506469.92104887025,506522.8276279959,507311.9336142461,222164.9851995689,507059.4706606234,507187.0097144854,TASK1
2026-05-10T12:32:43.168+00:00,1086,79134,208577.31504169884,47494.48418551495,506458.45460396464,506511.6294040238,507300.4671693405,222157.27384773182,507048.2724366513,507175.81149051327,TASK1
2026-05-10T12:32:43.168+00:00,1086,79135,208575.50455039795,47520.23339512747,506449.9385893272,506502.8451684529,507291.14649190265,222149.29427496128,507039.2199801469,507166.7590340089,TASK1
2026-05-10T12:32:43.168+00:00,1086,79136,208578.18675973258,47548.39659314115,506435.25349322,506488.4282932792,507276.4613957955,222142.3875859246,507024.5348840398,507152.3421588352,TASK1
2026-05-10T12:32:43.168+00:00,1086,79137,208585.16050400265,47547.390764640666,506446.786993359,506499.6935724847,507287.9948959345,222140.30887369023,507035.80016324524,507163.87565897417,TASK1
2026-05-10T12:32:43.168+00:00,1086,79138,208585.16050400265,47546.116715206714,506450.00564456056,506502.6440027528,507290.6771052691,222137.15727772203,507038.7505935133,507166.82608924224,TASK1
2026-05-10T12:32:43.168+00:00,1086,79139,208580.66780336713,47571.3294829523,506437.4663159211,506490.1046741134,507278.40599756315,222136.15144922156,507026.2112648739,507154.01853966934,TASK1
2026-05-10T12:32:43.168+00:00,1086,79140,208575.90688179815,47607.002867102965,506431.6325106183,506484.539089744,507272.5721922603,222136.419670155,507020.37745957106,507148.1847343665,TASK1
2026-05-10T12:32:43.168+00:00,1086,79141,208578.58909113277,47626.314774312355,506426.0669262489,506479.2417263081,507268.3477125582,222137.2243329554,507015.88475893554,507143.692033731,TASK1
2026-05-10T12:32:43.168+00:00,1086,79142,208586.09927726976,47600.09617806628,506470.5916012039,506523.4981803296,507314.481713114,222138.0289957558,507061.7505385578,507189.82603428676,TASK1
2026-05-10T12:32:43.168+00:00,1086,79143,208587.976823804,47568.51316315093,506484.539089744,506536.90922700276,507325.478771386,222131.65874858602,507072.74759682984,507200.82309255877,TASK1
2026-05-10T12:32:43.168+00:00,1086,79144,208585.36166970275,47570.390709685176,506465.56245870143,506517.9325959602,507306.5021403435,222126.09316421667,507054.03918672074,507182.11468244967,TASK1
2026-05-10T12:32:43.168+00:00,1086,79145,208587.5744924038,47576.76095685494,506458.72282489814,506511.4952935571,507300.2660036404,222125.55672234975,507048.13832618453,507175.3421038797,TASK1
2026-05-10T12:32:43.168+00:00,1086,79146,208590.25670173846,47603.85127113477,506439.7461938556,506492.5186625146,507281.2893725979,222121.33224264768,507029.161695142,507156.3654728372,TASK1
2026-05-10T12:32:43.168+00:00,1086,79147,208599.3762134762,47608.411027003654,506448.59748465987,506501.6381742523,507290.40888433566,222122.13690544807,507038.28120687976,507165.4849845749,TASK1
2026-05-10T12:32:43.168+00:00,1086,79148,208607.15462054667,47596.94458209808,506453.15724052873,506506.46615105466,507294.9686402045,222120.05819321374,507043.1091836821,507170.31296137726,TASK1
2026-05-10T12:32:43.168+00:00,1086,79149,208611.4461554821,47605.52765196892,506443.5683421574,506496.6090317499,507285.3797418332,222121.13107694758,507033.5202853108,507160.4558420725,TASK1
2026-05-10T12:32:43.168+00:00,1086,79150,208620.2974462864,47619.743361442495,506437.7345368546,506490.5070055136,507279.54593653034,222123.00862348184,507027.9547009414,507154.62203676964,TASK1
2026-05-10T12:32:43.168+00:00,1086,79151,208630.75806269146,47645.76079198847,506423.58588261437,506476.62657220685,507265.39728229016,222123.54506534876,507013.53782576777,507140.7416034629,TASK1
2026-05-10T12:32:43.168+00:00,1086,79152,208640.41401629616,47655.41674559316,506431.09606875136,506484.1367583438,507273.1756893606,222127.30015841726,507021.3162328382,507148.2517895999,TASK1
2026-05-10T12:32:43.168+00:00,1086,79153,208643.36444656426,47659.97650146204,506433.2418362191,506486.0143048781,507275.5896777618,222132.1281352196,507023.4620003059,507150.39755706757,TASK1
2026-05-10T12:32:43.168+00:00,1086,79154,208641.01751339645,47690.01724600998,506421.50717038003,506474.54785997246,507264.1232328562,222136.95611202193,507011.4591135334,507138.39467029506,TASK1
2026-05-10T12:32:43.168+00:00,1086,79155,208648.7959204669,47693.23589721154,506420.50134187954,506473.54203147197,507263.1174043557,222141.51586789082,507010.7215059664,507137.38884179463,TASK1
2026-05-10T12:32:43.168+00:00,1086,79156,208659.52475780546,47706.91516481819,506409.30311790743,506462.34380749986,507252.723843184,222145.27096095931,507000.32794479467,507126.9952806229,TASK1
2026-05-10T12:32:43.168+00:00,1086,79157,208666.4985020755,47711.743141620536,506450.3409207274,506503.38161031983,507298.5896228063,222147.6849493605,507045.9255034835,507172.8610602452,TASK1
2026-05-10T12:32:43.168+00:00,1086,79158,208669.4489323436,47668.09018469932,506494.5973747489,506547.6380643413,507339.09098375926,222147.21556272692,507086.69508537,507213.0942002647,TASK1
2026-05-10T12:32:43.168+00:00,1086,79159,208665.22445264156,47652.06398392487,506476.6936274402,506529.7343170326,507319.3096899163,222141.3817574241,507067.1820124605,507193.5811273552,TASK1
2026-05-10T12:32:43.168+00:00,1086,79160,208662.60929854028,47652.868646725256,506461.74031039956,506514.51277905854,507304.0881519423,222133.1339637201,507051.9604744864,507178.0913684477,TASK1
2026-05-10T12:32:43.168+00:00,1086,79161,208661.3352491063,47664.133925930735,506448.39631895977,506501.4370085522,507290.74416050245,222129.1777049515,507038.3482621131,507164.7473770079,TASK1
2026-05-10T12:32:43.168+00:00,1086,79162,208663.7492375075,47652.66748102516,506454.5654004294,506507.3378690884,507296.9132419721,222132.39635615307,507044.5173435828,507170.91645847756,TASK1
2026-05-10T12:32:43.168+00:00,1086,79163,208665.0903421748,47646.56545478886,506453.5595719289,506506.6002615214,507295.90741347166,222134.2739026873,507043.5115150823,507169.91062997706,TASK1
2026-05-10T12:32:43.168+00:00,1086,79164,208667.504330576,47665.609141064786,506439.1426967553,506492.1833863477,507281.7587592314,222134.2739026873,507029.09463990864,507155.4937548034,TASK1
2026-05-10T12:32:43.168+00:00,1086,79165,208671.52764457793,47692.69945534461,506434.3817751863,506487.42246477876,507276.72961672896,222134.0727369872,507024.3337183397,507150.7328332344,TASK1
2026-05-10T12:32:43.168+00:00,1086,79166,208677.8978917477,47706.04344678443,506425.99987101555,506479.44289200817,507267.34188405774,222140.30887369023,507015.0130409018,507142.1497633636,TASK1
2026-05-10T12:32:43.168+00:00,1086,79167,208682.99408948352,47705.305839217406,506434.8511618199,506488.025961879,507276.19317486207,222147.2826179603,507023.8643317061,507151.00105416786,TASK1
2026-05-10T12:32:43.168+00:00,1086,79168,208685.67629881814,47695.71694084608,506437.265150221,506490.7081712137,507279.14360513014,222153.45169942995,507027.08298290765,507153.951484436,TASK1
2026-05-10T12:32:43.168+00:00,1086,79169,208688.09028721933,47706.982220051555,506426.8715890493,506480.31461004197,507268.7500439584,222162.30299023425,507016.4212008025,507143.5579232643,TASK1
2026-05-10T12:32:43.168+00:00,1086,79170,208691.04071748743,47720.92970859167,506422.3788884138,506475.82190940646,507263.98912238947,222176.25047877437,507011.928500167,507139.06522262876,TASK1
2026-05-10T12:32:43.168+00:00,1086,79171,208696.13691522324,47739.1687320672,506418.15440871177,506471.32920877094,507261.91041015513,222181.8831183771,507009.84978793265,507136.7182894609,TASK1
2026-05-10T12:32:43.168+00:00,1086,79172,208696.13691522324,47733.603147697824,506508.0084214221,506561.4514424147,507358.7381671355,222178.99974334237,507106.677544913,507233.27782550786,TASK1
2026-05-10T12:32:43.168+00:00,1086,79173,208691.91243552117,47616.1894340741,506580.6962943907,506633.8710944499,507424.18407490064,222172.89771710607,507171.8552317447,507298.723733273,TASK1
2026-05-10T12:32:43.168+00:00,1086,79174,208673.740467279,47557.78432581238,506547.5039538746,506600.4105330003,507389.6506297172,222164.11348153514,507137.3217865612,507264.458509023,TASK1
2026-05-10T12:32:43.168+00:00,1086,79175,208652.34984783528,47558.85720954624,506522.3582413624,506575.2648204881,507364.7731381384,222154.52458316382,507112.4442949825,507239.3127965108,TASK1
2026-05-10T12:32:43.168+00:00,1086,79176,208635.78720519392,47577.096233021766,506497.7489707171,506550.11910797586,507339.35920469277,222144.39924292557,507087.2985824703,507213.8988630651,TASK1
2026-05-10T12:32:43.168+00:00,1086,79177,208623.51609748794,47583.5335354249,506504.1862731202,506556.28818944556,507345.79650709586,222134.81034455422,507093.4676639399,507220.06794453476,TASK1
2026-05-10T12:32:43.168+00:00,1086,79178,208610.70854791504,47572.60353238625,506504.7227149871,506557.62929411285,507346.86939082976,222126.8307717837,507094.54054767377,507221.4090492021,TASK1
2026-05-10T12:32:43.168+00:00,1086,79179,208600.04676580988,47579.04083478938,506494.86559568235,506547.7721748081,507337.01227152493,222120.99696648086,507084.683428369,507211.28370896383,TASK1
2026-05-10T12:32:43.168+00:00,1086,79180,208592.60363490626,47588.696788394074,506489.0317903795,506541.9383695052,507331.17846622213,222117.84537051266,507078.5814021327,507205.18168272753,TASK1
2026-05-10T12:32:43.168+00:00,1086,79181,208588.9155970711,47609.61802120424,506473.81025240547,506526.98505246465,507315.95692824805,222114.69377454446,507063.09164322517,507189.9601447535,TASK1
2026-05-10T12:32:43.168+00:00,1086,79182,208592.6706901396,47607.002867102965,506485.0755316109,506538.2503316701,507327.2222074535,222115.23021641138,507074.6251433641,507201.22542395897,TASK1
2026-05-10T12:32:43.168+00:00,1086,79183,208592.6706901396,47599.82795713282,506487.75774094556,506541.2007619382,507330.17263772164,222117.64420481256,507077.84379456565,507204.17585422704,TASK1
2026-05-10T12:32:43.168+00:00,1086,79184,208593.47535294,47606.26525953594,506478.7052844412,506532.1483054338,507321.3884021507,222120.3264141472,507068.7913380613,507195.3916186561,TASK1
2026-05-10T12:32:43.168+00:00,1086,79185,208599.10799254276,47619.944527142594,506468.5799442029,506521.7547442621,507311.26306191244,222122.20396068145,507058.39777688956,507184.9980574844,TASK1
2026-05-10T12:32:43.168+00:00,1086,79186,208607.42284148012,47641.133980886225,506452.285522495,506505.46032255417,507294.9686402045,222124.08150721568,507042.10335518164,507168.7036357765,TASK1
2026-05-10T12:32:43.168+00:00,1086,79187,208619.76100441944,47641.93864368661,506465.42834823474,506518.3349273604,507307.84324501076,222128.64126308457,507055.51440185483,507181.8464615162,TASK1
2026-05-10T12:32:43.168+00:00,1086,79188,208628.3440742903,47635.56839651685,506468.11055756937,506520.7489157616,507310.25723341195,222135.8832282881,507057.39194838906,507183.9922289839,TASK1
2026-05-10T12:32:43.168+00:00,1086,79189,208633.4402720261,47653.00275719199,506455.8394498634,506508.2095871222,507297.986125706,222144.19807722548,507045.1208406831,507171.72112127795,TASK1
2026-05-10T12:32:43.168+00:00,1086,79190,208640.95045816308,47673.65576906869,506449.4692026936,506502.1075608859,507291.8840994697,222151.70826336244,507039.0188144468,507165.61909504165,TASK1
2026-05-10T12:32:43.168+00:00,1086,79191,208651.9475164351,47702.69068511613,506436.3263769539,506489.56823224644,507278.60716326325,222159.55372566625,507026.14420964057,507153.01271116885,TASK1
2026-05-10T12:32:43.168+00:00,1086,79192,208665.35856310828,47697.66154261369,506449.20098176016,506502.17461611924,507291.4817680695,222171.89188860558,507039.0188144468,507165.8873159751,TASK1
2026-05-10T12:32:43.168+00:00,1086,79193,208672.86874924527,47704.36706595028,506448.1951532597,506500.9005666853,507290.20771863556,222183.42538874454,507037.7447650128,507164.61326654116,TASK1
2026-05-10T12:32:43.168+00:00,1086,79194,208677.96494698108,47737.62646169978,506434.31471995293,506487.02013337857,507276.32728532876,222195.4953307504,507023.8643317061,507150.7328332344,TASK1
2026-05-10T12:32:43.168+00:00,1086,79195,208687.3526796523,47755.32904330838,506431.1631239847,506484.1367583438,507273.1756893606,222210.78392395782,507021.24917760486,507147.8494581997,TASK1
2026-05-10T12:32:43.168+00:00,1086,79196,208701.03194725895,47772.2269621166,506419.69667907915,506472.6703134382,507261.70924445504,222223.92674969754,507009.5145117658,507136.11479236063,TASK1
2026-05-10T12:32:43.168+00:00,1086,79197,208712.56544739788,47784.028683189,506428.8161908169,506481.52160424256,507271.09697712626,222240.82466850575,507018.6340235036,507145.2343040984,TASK1
2026-05-10T12:32:43.168+00:00,1086,79198,208718.46630793408,47785.63800878978,506431.49840015155,506484.2038135772,507274.04740739433,222254.77215704587,507021.58445377165,507148.1847343665,TASK1
2026-05-10T12:32:43.168+00:00,1086,79199,208725.44005220415,47803.34059039838,506420.5683971129,506473.0055896051,507262.8491834222,222266.57387811827,507010.38622979954,507136.98651039443,TASK1
2026-05-10T12:32:43.168+00:00,1086,79200,208733.7549011415,47812.460102136145,506416.88035927777,506469.5857727034,507259.1611455871,222281.59425039223,507006.6981919644,507133.29847255925,TASK1
2026-05-10T12:32:43.168+00:00,1086,79201,208741.53330821198,47845.71949788564,506402.46348410414,506455.1688975297,507244.7442704134,222296.6146226662,506992.54953772423,507119.14981831907,TASK1
2026-05-10T12:32:43.509+00:00,1087,79202,208751.99392461704,47858.5941026919,506416.4109726442,506469.11638606986,507258.69175895356,222307.87990187167,507006.4970262643,507133.36552779266,TASK1
2026-05-10T12:32:43.509+00:00,1087,79203,208761.64987822174,47852.22385552214,506418.8249610454,506471.7985954045,507261.3739682882,222317.53585547637,507009.17923559895,507135.77951619384,TASK1
2026-05-10T12:32:43.509+00:00,1087,79204,208768.62362249178,47863.220913794146,506411.65005107527,506464.35546450084,507253.93083738454,222325.04604161336,507001.46788376186,507128.06816435675,TASK1
2026-05-10T12:32:43.509+00:00,1087,79205,208778.81601796343,47872.876867398845,506407.15735043975,506459.8627638653,507249.1699158156,222330.4104602826,506996.97518312634,507123.8436846547,TASK1
2026-05-10T12:32:43.509+00:00,1087,79206,208791.15418090275,47895.40742580979,506393.54513806646,506446.25055149203,507235.5577034423,222334.9702161515,506983.3629707531,507109.96325134794,TASK1
2026-05-10T12:32:43.509+00:00,1087,79207,208805.90633224323,47896.74853047711,506405.6150800723,506458.5887144314,507247.6276454482,222344.89439068967,506995.96935462585,507122.30141428724,TASK1
2026-05-10T12:32:43.509+00:00,1087,79208,208814.22118118062,47890.37828330735,506409.9066150077,506462.61202843336,507251.6509594501,222352.1363558932,507000.2608895613,507126.3247282892,TASK1
2026-05-10T12:32:43.509+00:00,1087,79209,208818.2444951826,47911.83595798444,506399.513053836,506451.95024632814,507240.98917734495,222356.4278908286,506989.5991074561,507115.66294618405,TASK1
2026-05-10T12:32:43.509+00:00,1087,79210,208818.7809370495,47947.77756306857,506394.75213226705,506447.1893247592,507236.228255776,222359.3783210967,506984.56996495364,507111.17024554854,TASK1
2026-05-10T12:32:43.509+00:00,1087,79211,208823.87713478532,47974.867877348406,506382.74924549455,506435.1864379867,507223.95714807,222363.9380769656,506972.5670781812,507098.8991378426,TASK1
2026-05-10T12:32:43.509+00:00,1087,79212,208836.21529772464,47983.182726285784,506394.55096656695,506446.9881590591,507236.0270900759,222370.64360030217,506984.63702018704,507110.96907984844,TASK1
2026-05-10T12:32:43.509+00:00,1087,79213,208844.79836759547,47986.13315655388,506397.7696177685,506450.4750311941,507239.2457412774,222376.00801897145,506987.5874504551,507114.18773105,TASK1
2026-05-10T12:32:43.509+00:00,1087,79214,208849.0899025309,48008.39549403136,506387.64427753026,506440.3496909559,507228.8521801057,222382.9817632415,506977.1938892834,507104.06239081174,TASK1
2026-05-10T12:32:43.509+00:00,1087,79215,208855.527204934,48018.58788950299,506387.64427753026,506440.1485252558,507228.6510144056,222390.22372844504,506977.1938892834,507104.06239081174,TASK1
2026-05-10T12:32:43.509+00:00,1087,79216,208862.2327282706,48032.80359897656,506382.0786931609,506434.5829408864,507224.9629765705,222395.05170524737,506973.23763051484,507100.1061320432,TASK1
2026-05-10T12:32:43.509+00:00,1087,79217,208864.91493760527,48019.459607536744,506463.8860778673,506516.39032559283,507313.4758846135,222394.5823186138,507061.4823176244,507188.61904008617,TASK1
2026-05-10T12:32:43.509+00:00,1087,79218,208861.15984453677,47957.56762714,506529.063764699,506582.23856475815,507372.6856556756,222383.7864260419,507120.4909229864,507247.7617559149,TASK1
2026-05-10T12:32:43.509+00:00,1087,79219,208849.15695776427,47908.55025154951,506500.4311800517,506553.8742010444,507342.4437454276,222371.7835392694,507090.24901273835,507217.5198456669,TASK1
2026-05-10T12:32:43.509+00:00,1087,79220,208839.56805939294,47878.30834130148,506481.45454900916,506535.1657909353,507323.7353353185,222360.31709436383,507071.54060262925,507199.07965649123,TASK1
2026-05-10T12:32:43.509+00:00,1087,79221,208830.51560288854,47878.84478316841,506462.20969703316,506515.38449709234,507304.222262409,222346.70488199053,507052.0275297198,507179.2983626483,TASK1
2026-05-10T12:32:43.509+00:00,1087,79222,208822.80425105145,47873.279198799035,506469.9881041036,506523.1629041628,507312.26889041293,222338.18886735308,507059.53771585674,507186.8085487853,TASK1
2026-05-10T12:32:43.509+00:00,1087,79223,208815.0928992144,47851.888579355305,506468.9822756031,506522.1570756623,507310.994840979,222330.477515516,507058.53188735625,507185.8027202848,TASK1
2026-05-10T12:32:43.509+00:00,1087,79224,208807.91798924422,47864.22674229464,506451.61497016135,506504.7897702205,507293.35931460373,222325.716593947,507040.89636098105,507168.435414843,TASK1
2026-05-10T12:32:43.509+00:00,1087,79225,208806.91216074373,47869.859381897375,506446.04938579194,506499.2241858511,507288.0619511678,222324.44254451306,507035.59899754514,507162.8698304737,TASK1
2026-05-10T12:32:43.509+00:00,1087,79226,208807.71682354412,47890.51239377408,506433.778278086,506486.6848572117,507275.2544015949,222319.4134020106,507023.3278898392,507150.0622809008,TASK1
2026-05-10T12:32:43.509+00:00,1087,79227,208808.25326541104,47902.04589391302,506443.9706735576,506496.87725268333,507285.715018,222316.53002697587,507033.5202853108,507160.52289730584,TASK1
2026-05-10T12:32:43.509+00:00,1087,79228,208805.10166944287,47907.94675444922,506444.2388944911,506497.1454736168,507285.9832389335,222312.03732634036,507033.78850624425,507160.7911182393,TASK1
2026-05-10T12:32:43.509+00:00,1087,79229,208802.75473627503,47923.50356859011,506434.11355425284,506487.288354312,507275.8578986952,222310.49505597295,507023.663166006,507150.6657780011,TASK1
2026-05-10T12:32:43.509+00:00,1087,79230,208806.24160841008,47933.42774312827,506429.6208536173,506482.52743274305,507270.82875619276,222312.10438157374,507018.902244437,507145.90485643205,TASK1
2026-05-10T12:32:43.509+00:00,1087,79231,208809.99670147858,47953.27609220458,506418.15440871177,506471.06098783744,507260.43519502104,222313.71370717452,507008.5086832653,507135.2430743269,TASK1
2026-05-10T12:32:43.509+00:00,1087,79232,208813.21535268013,47942.077868232474,506459.1922115317,506512.36701159086,507305.2280909095,222315.85947464223,507053.30157915375,507180.3041911488,TASK1
2026-05-10T12:32:43.509+00:00,1087,79233,208813.4835736136,47900.03423691204,506490.8422816804,506544.28530267306,507333.39128892316,222311.09855307324,507081.4647771674,507208.46738916246,TASK1
2026-05-10T12:32:43.509+00:00,1087,79234,208809.25909391153,47884.27625707105,506474.54785997246,506527.72266003164,507315.75576254795,222304.99652683694,507064.09747172566,507190.83186278725,TASK1
2026-05-10T12:32:43.509+00:00,1087,79235,208806.64393981028,47890.44533854071,506461.74031039956,506515.18333139224,507303.484654842,222299.1627215341,507051.5581430862,507178.2925341478,TASK1
2026-05-10T12:32:43.509+00:00,1087,79236,208806.91216074373,47900.637734012336,506445.4458886917,506498.8889096843,507287.4584540675,222291.98781156394,507035.5319423118,507162.2663333734,TASK1
2026-05-10T12:32:43.509+00:00,1087,79237,208811.20369567914,47897.754358977596,506454.5654004294,506508.0084214221,507296.3097448718,222284.54468066033,507044.6514540495,507170.8494032442,TASK1
2026-05-10T12:32:43.509+00:00,1087,79238,208812.81302127993,47897.28497234404,506452.21846726164,506505.66148825426,507293.4263698371,222277.63799162363,507042.0362999483,507168.23424914293,TASK1
2026-05-10T12:32:43.509+00:00,1087,79239,208812.81302127993,47909.354914349904,506444.2388944911,506497.4136945503,507285.1785761331,222276.09572125622,507034.0567271777,507160.7911182393,TASK1
2026-05-10T12:32:43.509+00:00,1087,79240,208813.0812422134,47919.279088888055,506440.55085665593,506493.7256567151,507281.7587592314,222275.08989275573,507030.6369102761,507157.37130133767,TASK1
2026-05-10T12:32:43.509+00:00,1087,79241,208813.34946314685,47944.49185663364,506426.40220241575,506479.5770024749,507267.8783259247,222270.8654130537,507016.48825603584,507143.2226470974,TASK1
2026-05-10T12:32:43.509+00:00,1087,79242,208814.42234688072,47952.27026370409,506438.20392348815,506490.8422816804,507279.41182606365,222271.67007585408,507027.48531430785,507154.4879263029,TASK1
2026-05-10T12:32:43.509+00:00,1087,79243,208816.8363352819,47937.31694666349,506440.0814700224,506492.7198282147,507281.0211516644,222274.88872705563,507028.8264189752,507156.0972519037,TASK1
2026-05-10T12:32:43.509+00:00,1087,79244,208818.71388181613,47942.68136533276,506431.5654553849,506484.2038135772,507272.50513702695,222276.22983172297,507020.84684620466,507147.8494581997,TASK1
2026-05-10T12:32:43.509+00:00,1087,79245,208820.5914283504,47970.84456334645,506426.268091949,506478.9064501413,507266.93955265754,222272.8100148213,507015.54948276875,507142.5520947638,TASK1
2026-05-10T12:32:43.509+00:00,1087,79246,208825.95584701965,48000.88530789439,506413.46054237615,506466.3671215018,507254.40022401814,222272.6088491212,507002.74193319585,507129.47632425744,TASK1
2026-05-10T12:32:43.509+00:00,1087,79247,208835.07535875743,48000.68414219429,506428.7491355836,506481.65571470925,507270.49348002597,222278.24148872393,507018.56696827017,507145.30135933176,TASK1
2026-05-10T12:32:43.509+00:00,1087,79248,208842.04910302747,47985.73082515369,506430.89490305126,506483.5332612435,507272.3710265602,222278.04032302383,507020.44451480446,507146.91068493255,TASK1
2026-05-10T12:32:43.509+00:00,1087,79249,208844.79836759547,48002.695799195266,506422.3118331804,506474.81608090596,507263.3185700558,222278.3085439573,507011.3920583,507138.26055982837,TASK1
2026-05-10T12:32:43.509+00:00,1087,79250,208846.67591412974,48012.888194666884,506417.28269067797,506470.05515933695,507258.28942755336,222280.454311425,507006.36291579757,507133.49963825935,TASK1
2026-05-10T12:32:43.509+00:00,1087,79251,208850.96744906515,48034.8823112109,506404.47514110507,506457.51583069755,507245.48187798046,222283.6729626266,506993.5553662247,507120.6920886865,TASK1
2026-05-10T12:32:43.509+00:00,1087,79252,208858.7458561356,48038.10096241247,506419.7637343125,506472.804423905,507261.03869212134,222288.7691603624,507009.1121803656,507135.98068189394,TASK1
2026-05-10T12:32:43.509+00:00,1087,79253,208862.50094920408,48036.022250178125,506420.8366180464,506473.8773076388,507262.11157585523,222288.7691603624,507010.45328503294,507137.3217865612,TASK1
2026-05-10T12:32:43.509+00:00,1087,79254,208863.57383293792,48058.01636672215,506411.24771967507,506464.82485113444,507252.5226774839,222286.4222271946,507000.5961657281,507127.46466725646,TASK1
2026-05-10T12:32:43.509+00:00,1087,79255,208868.67003067376,48062.039680724105,506407.55968183995,506461.1368132993,507249.10286058224,222289.10443652922,506996.63990695955,507123.77662942134,TASK1
2026-05-10T12:32:43.509+00:00,1087,79256,208873.4980074761,48072.76851806266,506395.8250160009,506449.40214746026,507237.6364156767,222295.00529706542,506985.17346205394,507112.5784054492,TASK1
2026-05-10T12:32:43.509+00:00,1087,79257,208879.3988680123,48082.42447166735,506408.69962080714,506462.00853133306,507250.2427995494,222299.5650529343,506997.77984592674,507124.9165683885,TASK1
2026-05-10T12:32:43.509+00:00,1087,79258,208886.64083321582,48073.103794229486,506408.69962080714,506461.80736563297,507250.2427995494,222301.97904133546,506997.57868022664,507124.9165683885,TASK1
2026-05-10T12:32:43.509+00:00,1087,79259,208894.1510193528,48083.83263156803,506398.57428056886,506451.95024632814,507240.38568024465,222302.24726226894,506987.72156092187,507115.05944908375,TASK1
2026-05-10T12:32:43.509+00:00,1087,79260,208900.85654268938,48101.8034341101,506394.08157993335,506447.1893247592,507235.6247586757,222301.24143376845,506982.9606393529,507110.2985275148,TASK1
2026-05-10T12:32:43.509+00:00,1087,79261,208910.24427536063,48117.89669011792,506384.2244606286,506437.60042638786,507227.1087440382,222304.19186403655,506974.7128456489,507101.7825128773,TASK1
2026-05-10T12:32:43.509+00:00,1087,79262,208918.29090336454,48095.96962880727,506448.3292637264,506501.4370085522,507296.84618673875,222309.82450363928,507044.4502883494,507171.7881765113,TASK1
2026-05-10T12:32:43.509+00:00,1087,79263,208921.24133363264,48030.85899720895,506505.1921016207,506558.2998464465,507348.8810478307,222303.45425646953,507096.2169285079,507223.5548166698,TASK1
2026-05-10T12:32:43.509+00:00,1087,79264,208917.28507486405,47996.05733109204,506483.801482177,506537.17744793626,507325.6128818527,222290.37848596316,507073.21698346344,507200.0184297584,TASK1
2026-05-10T12:32:43.509+00:00,1087,79265,208913.06059516198,47984.05444431954,506467.7752814025,506520.3465843614,507308.7820182779,222281.0578085253,507056.654340822,507183.455787117,TASK1
2026-05-10T12:32:43.509+00:00,1087,79266,208909.1043363934,47979.56174368402,506450.40797596076,506502.97927891964,507291.4147128361,222275.7604450894,507039.28703538026,507166.0884816752,TASK1
2026-05-10T12:32:43.509+00:00,1087,79267,208904.07519389095,47978.82413611699,506455.2359527631,506508.07547665545,507296.5109105719,222268.8537560527,507044.1150121826,507170.91645847756,TASK1
2026-05-10T12:32:43.509+00:00,1087,79268,208897.43672578773,47975.6725401488,506453.42546146223,506506.26498535456,507294.7004192711,222262.48350888296,507042.30452088173,507169.10596717667,TASK1
2026-05-10T12:32:43.509+00:00,1087,79269,208892.4075832853,47973.86204884792,506444.10478402436,506497.48074978363,507285.64796276664,222261.7459013159,507032.98384344386,507160.32173160574,TASK1
2026-05-10T12:32:43.509+00:00,1087,79270,208893.01108038556,47981.439290218266,506439.41091768874,506492.786883448,507281.2223173645,222265.56804961778,507028.6252532751,507156.0972519037,TASK1
2026-05-10T12:32:43.509+00:00,1087,79271,208890.3959262843,48004.774511429605,506425.79870531545,506478.9064501413,507267.0736631243,222265.83627055126,507014.74481996836,507141.9485976635,TASK1
2026-05-10T12:32:43.509+00:00,1087,79272,208891.73703095163,47997.59960145946,506437.8686473213,506490.97639214713,507279.14360513014,222268.78670081936,507026.8147619742,507153.7503187359,TASK1
2026-05-10T12:32:43.509+00:00,1087,79273,208890.73120245113,47985.32849375349,506438.1368682548,506491.5128340141,507279.6800469971,222271.73713108743,507027.3512038411,507154.2867606028,TASK1
2026-05-10T12:32:43.509+00:00,1087,79274,208886.5067227491,47999.812424160526,506429.0844117504,506482.7285984431,507270.62759049266,222276.29688695632,507018.2987473367,507145.50252503186,TASK1
2026-05-10T12:32:43.509+00:00,1087,79275,208882.5504639805,48025.829854706506,506423.2506064476,506476.62657220685,507264.79378518986,222284.87995682715,507012.1967211004,507139.66871972906,TASK1
2026-05-10T12:32:43.509+00:00,1087,79276,208881.54463548,48045.409982849356,506418.2214639451,506471.32920877094,507261.64218922163,222291.3172592303,507009.3133460657,507136.78534469433,TASK1
2026-05-10T12:32:43.906+00:00,1088,79277,208876.2472720441,48006.85322366395,506519.87719772785,506572.9849425536,507370.2716672744,222295.60879416572,507117.9428241185,507245.4148227471,TASK1
2026-05-10T12:32:43.906+00:00,1088,79278,208857.538861935,47922.96712672318,506582.1044542914,506634.9439781838,507424.7205167676,222287.62922139515,507172.92811547854,507299.86367224023,TASK1
2026-05-10T12:32:43.906+00:00,1088,79279,208834.00247502356,47877.973065134654,506547.03456724103,506599.87409113336,507388.3095250499,222276.1627764896,507136.51712376083,507263.4526805225,TASK1
2026-05-10T12:32:43.906+00:00,1088,79280,208814.4894021141,47840.4891896831,506529.3990408658,506581.9703438247,507370.6739986746,222272.206517721,507118.6133764521,507245.5489332138,TASK1
2026-05-10T12:32:43.906+00:00,1088,79281,208793.3670036038,47850.94980608819,506507.47197955515,506559.5068406471,507348.47871643055,222265.83627055126,507096.418094208,507223.6218719032,TASK1
2026-05-10T12:32:43.906+00:00,1088,79282,208778.68190749668,47837.06937278144,506516.3232703594,506568.8945733183,507357.0617863014,222263.22111644997,507105.5376059458,507232.47316270747,TASK1
2026-05-10T12:32:43.906+00:00,1088,79283,208761.58282298836,47830.69912561168,506513.17167439125,506565.4747564167,507353.91019033315,222261.947067016,507101.84956811066,507228.78512487235,TASK1
2026-05-10T12:32:43.906+00:00,1088,79284,208745.020180347,47846.25593975257,506499.2912410845,506551.5943231099,507340.29797795985,222263.28817168335,507087.9691348039,507214.9046915656,TASK1
2026-05-10T12:32:43.906+00:00,1088,79285,208729.79864237292,47857.52121895805,506491.311668314,506543.88297127286,507332.3184051893,222266.23860195145,507080.25778296683,507207.46156066196,TASK1
2026-05-10T12:32:43.906+00:00,1088,79286,208717.52753466697,47880.31999830246,506476.8947931403,506529.4660960992,507318.16975094914,222270.2619159534,507065.84090779314,507193.3129064218,TASK1
2026-05-10T12:32:43.906+00:00,1088,79287,208706.06108976138,47889.439510040225,506488.96473514615,506541.536038105,507330.239692955,222278.3085439573,507078.1790707325,507205.38284842763,TASK1
2026-05-10T12:32:43.906+00:00,1088,79288,208698.61795885777,47884.41036753778,506487.95890664565,506540.2619886711,507329.2338644545,222282.60007889272,507076.90502129856,507204.1087989937,TASK1
2026-05-10T12:32:43.906+00:00,1088,79289,208691.44304888762,47890.04300714052,506480.7839966755,506533.3552996344,507321.7907335509,222289.03738129584,507069.99833226186,507197.202109957,TASK1
2026-05-10T12:32:43.906+00:00,1088,79290,208683.999917984,47900.771844479066,506476.55951697344,506529.3990408658,507317.8344747823,222300.30266050133,507065.50563162635,507193.24585118843,TASK1
2026-05-10T12:32:43.906+00:00,1088,79291,208680.58010108233,47921.1566354223,506463.4837464671,506516.3232703594,507305.2951461429,222311.29971877334,507052.42986112,507180.43830161553,TASK1
2026-05-10T12:32:43.906+00:00,1088,79292,208680.1107144488,47915.05460918601,506480.91810714226,506533.48941010115,507322.46128588455,222323.63788171267,507069.8642217951,507197.87266229064,TASK1
2026-05-10T12:32:43.906+00:00,1088,79293,208677.22733941404,47904.392827080825,506478.8393949079,506531.67891880026,507320.3825736502,222334.3667190512,507067.7855095608,507196.06217098975,TASK1
2026-05-10T12:32:43.906+00:00,1088,79294,208674.07574344584,47920.754304022106,506467.3729500023,506520.21247389464,507309.1843496781,222340.80402145433,507056.3190646552,507184.32750515075,TASK1
2026-05-10T12:32:43.906+00:00,1088,79295,208673.27108064544,47937.71927806368,506463.01435983356,506515.9209389592,507304.6245938092,222353.54451579385,507052.29575065325,507179.7006940485,TASK1
2026-05-10T12:32:43.906+00:00,1088,79296,208672.8016940119,47962.66382487581,506448.8657055933,506501.5040637856,507290.20771863556,222366.41912060013,507038.147096413,507165.2838188748,TASK1
2026-05-10T12:32:43.906+00:00,1088,79297,208675.48390334653,47960.04867077454,506461.4720894661,506514.6468895253,507303.0823234418,222382.7805975414,507051.0217012193,507178.1584236811,TASK1
2026-05-10T12:32:43.906+00:00,1088,79298,208676.82500801384,47955.019528272096,506462.00853133306,506515.4515523257,507303.6187653087,222395.9234232811,507051.5581430862,507178.9630864815,TASK1
2026-05-10T12:32:43.906+00:00,1088,79299,208673.9416329791,47982.10984255192,506450.273865494,506503.4486655532,507291.8840994697,222405.0429350189,507039.5552563137,507167.22842064244,TASK1
2026-05-10T12:32:43.906+00:00,1088,79300,208675.01451671298,48006.51794749712,506446.04938579194,506499.2241858511,507287.6596197676,222416.30821422438,507035.3307766117,507163.00394094037,TASK1
2026-05-10T12:32:43.906+00:00,1088,79301,208677.42850511413,48026.36629657343,506437.80159208796,506491.2446130806,507279.6800469971,222430.7921446314,507027.3512038411,507154.7561472364,TASK1
2026-05-10T12:32:43.906+00:00,1088,79302,208677.96494698108,48028.51206404114,506451.74908062804,506504.9238806872,507293.6275355372,222445.81251690537,507041.29869238124,507168.7036357765,TASK1
2026-05-10T12:32:43.906+00:00,1088,79303,208679.57427258184,48016.50917726864,506450.4750311941,506503.38161031983,507291.8170442363,222458.1506798447,507039.7564220138,507166.8931444756,TASK1
2026-05-10T12:32:43.906+00:00,1088,79304,208678.83666501482,48031.261328609144,506440.3496909559,506493.25627008156,507281.1552621311,222469.1477381167,507029.6310817756,507156.7678042374,TASK1
2026-05-10T12:32:43.906+00:00,1088,79305,208677.2943946474,48044.135933415404,506434.2476647196,506487.15424384526,507275.3214568283,222482.29056385643,507023.5290555393,507150.39755706757,TASK1
2026-05-10T12:32:43.906+00:00,1088,79306,208679.97660398204,48062.106735957466,506422.2447779471,506475.41957800626,507264.1232328562,222497.04271519693,507012.5990525006,507139.46755402896,TASK1
2026-05-10T12:32:43.906+00:00,1088,79307,208682.12237144975,48055.736488787705,506460.6003714324,506513.77517149155,507305.96569847653,222508.30799440242,507054.1732971875,507181.3100196493,TASK1
2026-05-10T12:32:43.906+00:00,1088,79308,208682.92703425014,48023.61703200543,506483.9355926437,506536.57395083597,507326.0822684863,222514.47707587207,507074.02164626383,507201.15836872556,TASK1
2026-05-10T12:32:43.906+00:00,1088,79309,208680.3118801489,48016.9785639022,506468.1776128027,506520.5477500615,507309.5196258449,222520.64615734175,507057.7272245559,507184.5957260842,TASK1
2026-05-10T12:32:43.906+00:00,1088,79310,208677.6967260476,48023.95230817226,506457.24760976405,506509.88596795633,507298.5896228063,222521.18259920867,507046.79722151725,507173.6657230456,TASK1
2026-05-10T12:32:43.906+00:00,1088,79311,208670.52181607747,48050.2379596517,506443.6353973908,506495.7373137161,507284.70918949955,222520.98143350857,507032.9167882105,507159.7852897388,TASK1
2026-05-10T12:32:43.906+00:00,1088,79312,208664.41978984117,48046.81814275004,506455.70533939666,506507.807255722,507297.04735243885,222525.54118937746,507045.2549511498,507172.12345267815,TASK1
2026-05-10T12:32:43.906+00:00,1088,79313,208656.97665893755,48039.106790912956,506456.7782231305,506509.1483603893,507297.85201523924,222529.02806151248,507046.0596139502,507172.92811547854,TASK1
2026-05-10T12:32:43.906+00:00,1088,79314,208651.9475164351,48051.98139571922,506447.1893247592,506499.55946201796,507288.53133780137,222531.97849178058,507036.7389365124,507163.60743804066,TASK1
2026-05-10T12:32:43.906+00:00,1088,79315,208646.65015299918,48068.074651727045,506441.3555194563,506493.7256567151,507282.42931156507,222536.80646858292,507030.6369102761,507157.77363273787,TASK1
2026-05-10T12:32:43.906+00:00,1088,79316,208648.25947859997,48093.82386133956,506431.2301792181,506483.6003164769,507272.5721922603,222536.80646858292,507020.5115700378,507147.38007156615,TASK1
2026-05-10T12:32:43.906+00:00,1088,79317,208654.96500193657,48089.599381637505,506446.25055149203,506498.6206887508,507287.8607854677,222537.34291044986,507036.0683841787,507162.4004438401,TASK1
2026-05-10T12:32:43.906+00:00,1088,79318,208653.42273156915,48078.132936731934,506446.04938579194,506498.4195230508,507287.3913988342,222540.29334071797,507035.59899754514,507162.19927814,TASK1
2026-05-10T12:32:43.906+00:00,1088,79319,208651.88046120174,48092.34864620551,506435.6558246202,506488.025961879,507276.99783766246,222541.63444538528,507025.74187824037,507152.3421588352,TASK1
2026-05-10T12:32:43.906+00:00,1088,79320,208647.3877605662,48121.58472795305,506427.1398099828,506479.5099472416,507268.7500439584,222542.43910818567,507017.2258636029,507143.8261441977,TASK1
2026-05-10T12:32:43.906+00:00,1088,79321,208641.82217619685,48159.67210050489,506413.79581854295,506466.43417673523,507255.6742734521,222545.38953845378,507003.88187216304,507130.7503736914,TASK1
2026-05-10T12:32:43.906+00:00,1088,79322,208644.16910936465,48138.54970199463,506438.00275778805,506490.8422816804,507279.41182606365,222560.20874502763,507027.8205904747,507154.5549815363,TASK1
2026-05-10T12:32:43.906+00:00,1088,79323,208638.60352499527,48131.64301295794,506439.0756415219,506491.9151654143,507280.216488864,222560.20874502763,507028.6252532751,507155.62786527013,TASK1
2026-05-10T12:32:43.906+00:00,1088,79324,208630.8921731582,48147.73626896575,506430.5596268844,506483.3991507768,507271.70047422656,222559.20291652714,507020.1092386376,507147.38007156615,TASK1
2026-05-10T12:32:43.906+00:00,1088,79325,208629.61812372424,48159.80621097162,506424.18937971466,506477.2971245405,507265.59844799025,222560.275800261,507014.0072124013,507141.27804532985,TASK1
2026-05-10T12:32:43.906+00:00,1088,79326,208629.88634465772,48185.8236415176,506411.1136092083,506464.22135403415,507252.5226774839,222560.0746345609,507000.66322096146,507128.20227482344,TASK1
2026-05-10T12:32:43.906+00:00,1088,79327,208633.37321679274,48189.846955519555,506424.79287681496,506477.9006216408,507266.20194509055,222563.025064829,507014.34248856816,507141.88154243014,TASK1
2026-05-10T12:32:43.906+00:00,1088,79328,208637.12830986123,48187.23180141828,506423.518827381,506476.62657220685,507264.6596747231,222564.09794856285,507013.06843913416,507140.3392720627,TASK1
2026-05-10T12:32:43.906+00:00,1088,79329,208639.00585639547,48203.59327835957,506413.1252662093,506466.5012319686,507254.2661135514,222563.09212006236,507002.94309889595,507129.945710891,TASK1
2026-05-10T12:32:43.906+00:00,1088,79330,208640.34696106278,48220.49119716778,506405.68213530566,506459.32632199844,507246.8229826478,222565.50610846354,506995.76818892575,507122.77080092084,TASK1
2026-05-10T12:32:43.906+00:00,1088,79331,208645.4431587986,48247.84973238107,506392.87458573276,506446.25055149203,507233.7472121414,222566.84721313085,506982.9606393529,507109.96325134794,TASK1
2026-05-10T12:32:43.906+00:00,1088,79332,208654.8308914698,48245.771020146734,506410.3089464079,506463.6849121672,507251.18157281657,222570.33408526587,507000.1267790946,507127.1293910896,TASK1
2026-05-10T12:32:43.906+00:00,1088,79333,208658.0495426714,48242.35120324507,506410.1077807078,506462.94730460015,507250.712186183,222572.21163180014,506999.657392461,507126.66000445606,TASK1
2026-05-10T12:32:43.906+00:00,1088,79334,208660.73175200602,48260.32200578714,506401.05532420345,506454.1630690292,507241.39150874515,222568.25537303154,506990.6049359566,507117.60754795163,TASK1
2026-05-10T12:32:43.906+00:00,1088,79335,208663.68218227412,48281.2432385973,506397.9037282352,506451.2796939945,507238.2399127769,222566.1766607972,506987.1851190549,507114.18773105,TASK1
2026-05-10T12:32:43.906+00:00,1088,79336,208667.4372753426,48298.14115740552,506387.24194613006,506440.3496909559,507229.18745627254,222566.9813235976,506978.13266255055,507104.86705361214,TASK1
2026-05-10T12:32:43.906+00:00,1088,79337,208669.8512637438,48266.2899215567,506445.71410962514,506498.285412584,507290.8782709692,222569.9317538657,507039.8234772472,507166.5578683088,TASK1
2026-05-10T12:32:43.906+00:00,1088,79338,208662.67635377366,48216.467883165824,506472.267982038,506524.8392849969,507313.4088293801,222564.36616949632,507062.0858147247,507189.0884267197,TASK1
2026-05-10T12:32:43.906+00:00,1088,79339,208648.25947859997,48211.43874066338,506450.3409207274,506502.9122236863,507290.94532620255,222553.70438739113,507039.89053248055,507166.8931444756,TASK1
2026-05-10T12:32:43.906+00:00,1088,79340,208635.18370809362,48214.657391864945,506438.8744758218,506491.7139997142,507279.74710223044,222546.529477421,507028.424087575,507155.42669957003,TASK1
2026-05-10T12:32:43.906+00:00,1088,79341,208623.71726318804,48230.21420600584,506423.38471691427,506476.22424080665,507263.98912238947,222542.03677678548,507012.66610773397,507139.9369406625,TASK1
2026-05-10T12:32:43.906+00:00,1088,79342,208620.02922535292,48223.039296035684,506434.6499961198,506487.4895200121,507275.2544015949,222538.34873895033,507024.1996078729,507151.47044080147,TASK1
2026-05-10T12:32:43.906+00:00,1088,79343,208615.26830378393,48213.182176730894,506429.88907455077,506482.9968193766,507270.49348002597,222535.19714298216,507019.43868630397,507146.97774016595,TASK1
2026-05-10T12:32:43.906+00:00,1088,79344,208608.0933938138,48231.95764207335,506419.49551337905,506472.6032582049,507260.09991885425,222530.9726632801,507009.04512513225,507136.8523999277,TASK1
2026-05-10T12:32:43.906+00:00,1088,79345,208599.84560010978,48245.10046781307,506419.0261267455,506472.1338715713,507259.89875315415,222529.1621719792,507008.3075175652,507136.11479236063,TASK1
2026-05-10T12:32:43.906+00:00,1088,79346,208597.76688787542,48253.951758617375,506411.046553975,506464.42251973425,507251.9191803836,222528.1563434787,507000.86438666156,507128.1352195901,TASK1
2026-05-10T12:32:43.906+00:00,1088,79347,208600.1808762766,48244.362860246045,506424.45760064817,506477.2971245405,507265.33022705675,222528.42456441218,507014.0072124013,507141.5462662633,TASK1
2026-05-10T12:32:43.906+00:00,1088,79348,208599.71148964303,48237.99261307628,506421.30600467994,506474.41374950577,507262.1786310886,222527.68695684517,507010.8556164331,507138.39467029506,TASK1
2026-05-10T12:32:43.906+00:00,1088,79349,208597.36455647522,48251.40365974947,506413.05821097596,506465.8977348683,507253.6626164511,222528.49161964556,507002.33960179565,507129.87865565764,TASK1
2026-05-10T12:32:43.906+00:00,1088,79350,208597.90099834217,48261.32783428762,506409.9066150077,506462.74613890005,507250.2427995494,222529.5645033794,506999.1880058274,507126.45883875596,TASK1
2026-05-10T12:32:43.906+00:00,1088,79351,208600.04676580988,48279.29863682969,506401.9270422372,506455.034787063,507244.1407733131,222527.7540120785,506993.3542005246,507120.35681251966,TASK1
2026-05-10T12:32:43.906+00:00,1088,79352,208600.04676580988,48256.29869178518,506462.2767522665,506515.38449709234,507306.0998089433,222524.0659742434,507055.31323615473,507182.31584814977,TASK1
2026-05-10T12:32:43.906+00:00,1088,79353,208596.224617508,48215.9314412989,506475.41957800626,506528.2591018986,507317.0298119819,222516.62284333978,507065.3715211596,507192.24002268794,TASK1
2026-05-10T12:32:43.906+00:00,1088,79354,208585.8310563363,48214.38917093148,506454.297179496,506506.86848245485,507295.63919253816,222505.69284030114,507043.98090171587,507171.11762417766,TASK1
2026-05-10T12:32:43.906+00:00,1088,79355,208579.46080916654,48210.70113309636,506445.51294392504,506498.0842468839,507286.85495696723,222500.6636977987,507034.9284452115,507161.7969467398,TASK1
2026-05-10T12:32:43.906+00:00,1088,79356,208578.18675973258,48210.49996739626,506430.8278478179,506483.66737171024,507272.43808179355,222499.38964836474,507020.77979097125,507147.38007156615,TASK1
2026-05-10T12:32:43.906+00:00,1088,79357,208580.8689690672,48194.741987555266,506444.2388944911,506497.07841838343,507286.1173494002,222499.38964836474,507034.4590585779,507161.0593391728,TASK1
2026-05-10T12:32:43.906+00:00,1088,79358,208579.59491963327,48188.10351945204,506440.01441478904,506492.3174968145,507281.8928696982,222495.43338959615,507029.9663579424,507156.8348594707,TASK1
2026-05-10T12:32:43.906+00:00,1088,79359,208575.37043993123,48205.00143826025,506431.49840015155,506483.5332612435,507272.84041319374,222490.13602616024,507021.18212237145,507147.78240296635,TASK1
2026-05-10T12:32:43.906+00:00,1088,79360,208570.60951836224,48226.99555480427,506425.9328157822,506477.96767687413,507267.00660789094,222487.520872059,507015.34831706865,507141.9485976635,TASK1
2026-05-10T12:32:43.906+00:00,1088,79361,208569.60368986175,48253.54942721718,506412.05238247546,506464.35546450084,507253.1261745842,222485.97860169155,507001.73610469536,507128.06816435675,TASK1
2026-05-10T12:32:43.906+00:00,1088,79362,208569.60368986175,48256.23163655181,506425.99987101555,506478.57117397443,507267.34188405774,222490.00191569352,507015.95181416895,507142.28387383034,TASK1
2026-05-10T12:32:43.906+00:00,1088,79363,208564.5745473593,48255.762249918254,506422.3118331804,506474.8831361393,507263.6538462226,222493.48878782854,507011.9955554003,507138.59583599516,TASK1
2026-05-10T12:32:43.906+00:00,1088,79364,208557.66785832262,48271.31906405915,506412.18649294216,506464.75779590104,507253.2602850509,222500.4625320986,507001.6019942286,507128.47049575695,TASK1
2026-05-10T12:32:43.906+00:00,1088,79365,208552.10227395323,48296.531831804736,506404.2069201716,506456.7782231305,507245.28071228036,222510.92314850367,506993.3542005246,507120.75914391986,TASK1
2026-05-10T12:32:43.906+00:00,1088,79366,208551.36466638622,48321.74459955032,506394.34980086685,506446.92110382573,507237.30113950983,222521.1155439753,506985.37462775403,507112.7795711493,TASK1
2026-05-10T12:32:43.906+00:00,1088,79367,208549.28595415186,48293.11201490307,506478.0347321075,506530.60603506636,507328.228035954,222529.1621719792,507076.03330326476,507203.17002572655,TASK1
2026-05-10T12:32:43.906+00:00,1088,79368,208538.35595111322,48220.75941810125,506550.4543841427,506603.29390803503,507394.746827453,222522.25548294254,507142.28387383034,507269.4205962921,TASK1
2026-05-10T12:32:43.906+00:00,1088,79369,208520.18398287107,48172.81492624461,506526.38155536435,506579.2210792567,507367.99178934,222509.71615430308,507115.7970566508,507242.9337791126,TASK1
2026-05-10T12:32:43.906+00:00,1088,79370,208502.28023556236,48152.228969601274,506504.1862731202,506557.294017946,507345.79650709586,222496.9086047302,507093.8699953401,507221.0067178019,TASK1
2026-05-10T12:32:43.906+00:00,1088,79371,208488.39980225562,48157.59338827054,506483.3320955434,506536.1716194358,507324.9423295191,222485.7103807581,507073.01581776334,507200.1525402251,TASK1
2026-05-10T12:32:43.906+00:00,1088,79372,208479.34734575122,48148.00448989922,506493.25627008156,506546.0957939739,507335.40294592414,222477.4625870541,507083.20821323496,507210.07671476324,TASK1
2026-05-10T12:32:43.906+00:00,1088,79373,208470.02666831334,48135.465161259795,506486.8860229118,506539.72554680414,507329.0326987544,222466.8008049489,507076.83796606516,507203.7064675935,TASK1
2026-05-10T12:32:43.906+00:00,1088,79374,208465.6010229112,48131.9112338914,506476.55951697344,506529.7343170326,507318.6391375827,222458.1506798447,507066.31029442674,507193.64818258863,TASK1
2026-05-10T12:32:43.906+00:00,1088,79375,208459.23077574145,48143.17651309687,506466.1659558017,506519.07253492746,507307.9773554775,222450.97576987455,507055.916733255,507183.2546214169,TASK1
2026-05-10T12:32:43.906+00:00,1088,79376,208457.9567263075,48164.3659668405,506456.0406155635,506508.9471946892,507297.3155733723,222444.87374363825,507045.2549511498,507172.5928393117,TASK1
2026-05-10T12:32:44.248+00:00,1089,79377,208458.76138910788,48159.33682433806,506468.64699943626,506521.553578562,507309.9219572451,222444.40435700468,507057.8613350226,507185.46744411794,TASK1
2026-05-10T12:32:44.248+00:00,1089,79378,208453.73224660545,48163.09191740655,506462.2767522665,506515.18333139224,507303.2834891419,222445.47724073855,507051.49108785286,507178.82897601475,TASK1
2026-05-10T12:32:44.248+00:00,1089,79379,208451.38531343764,48187.23180141828,506452.6878538952,506505.5944330209,507293.962811704,222446.5501244724,507042.170410415,507169.2400776434,TASK1
2026-05-10T12:32:44.248+00:00,1089,79380,208452.9946390384,48196.88775502297,506448.4633741931,506501.36995331885,507289.73833200196,222451.37810127475,507037.67770977947,507164.7473770079,TASK1
2026-05-10T12:32:44.248+00:00,1089,79381,208455.40862743958,48218.077208766605,506435.9240455537,506489.0988456129,507278.00366616296,222457.5471827444,507026.2112648739,507153.28093210235,TASK1
2026-05-10T12:32:44.248+00:00,1089,79382,208455.40862743958,48225.31917397013,506471.5974297044,506524.5040088301,507316.0910387148,222462.91160141368,507064.5668583592,507191.63652558764,TASK1
2026-05-10T12:32:44.248+00:00,1089,79383,208452.25703147138,48204.464996393326,506487.15424384526,506540.060822971,507328.69742258755,222465.32558981486,507077.173242232,507204.24290946044,TASK1
2026-05-10T12:32:44.248+00:00,1089,79384,208449.91009830358,48195.41253988892,506471.3962640043,506524.57106406346,507312.6712218131,222468.0077991495,507060.8788205241,507188.21670868597,TASK1
2026-05-10T12:32:44.248+00:00,1089,79385,208448.36782793616,48209.6282493625,506460.7344818991,506513.9092819583,507302.0094397079,222470.42178755067,507050.48525935237,507177.82314751425,TASK1
2026-05-10T12:32:44.248+00:00,1089,79386,208451.0500372708,48227.599051904566,506448.4633741931,506501.36995331885,507289.4701110685,222474.7133224861,507037.9459307129,507165.5520398083,TASK1
2026-05-10T12:32:44.248+00:00,1089,79387,208455.87801407315,48226.59322340408,506459.72865339863,506512.6352325243,507300.4671693405,222481.68706675613,507049.21120991843,507176.81731901376,TASK1
2026-05-10T12:32:44.248+00:00,1089,79388,208452.45819717148,48230.0800955391,506456.84527836385,506509.7518574896,507297.5837943058,222486.78326449194,507046.59605581715,507173.93394397903,TASK1
2026-05-10T12:32:44.248+00:00,1089,79389,208448.5019384029,48238.66316540994,506447.7928218595,506500.6994009852,507288.79955873487,222496.43921809664,507037.5435993127,507164.8814874746,TASK1
2026-05-10T12:32:44.248+00:00,1089,79390,208445.35034243469,48261.19372382089,506441.4225746897,506494.3291538154,507282.69753249857,222506.89983450173,507031.17335214297,507158.51124030486,TASK1
2026-05-10T12:32:44.248+00:00,1089,79391,208445.1491767346,48290.6980265019,506432.10189725185,506485.5449182445,507273.64507599414,222513.33713690485,507022.38911657204,507149.9952256674,TASK1
2026-05-10T12:32:44.248+00:00,1089,79392,208449.97715353695,48270.648511725485,506453.5595719289,506506.7343719881,507295.3709716047,222523.79775330995,507043.8467912491,507171.184679411,TASK1
2026-05-10T12:32:44.248+00:00,1089,79393,208446.02089476836,48265.08292735612,506449.0668712934,506501.97345041914,507290.0736081688,222535.0630325154,507039.08586968016,507166.42375784204,TASK1
2026-05-10T12:32:44.248+00:00,1089,79394,208439.65064759858,48284.3948345655,506443.2330659906,506496.1396451163,507283.70336099906,222545.79186985397,507032.98384344386,507160.32173160574,TASK1
2026-05-10T12:32:44.248+00:00,1089,79395,208434.35328416267,48304.24318364181,506441.9590165566,506494.86559568235,507282.42931156507,222556.78892812596,507031.7097940099,507158.51124030486,TASK1
2026-05-10T12:32:44.248+00:00,1089,79396,208435.42616789654,48328.91950952047,506431.5654553849,506484.47203451063,507272.03575039335,222565.90843986374,507021.3162328382,507148.11767913314,TASK1
2026-05-10T12:32:44.248+00:00,1089,79397,208440.25414469888,48321.20815768339,506451.14558352774,506504.3203835869,507292.15232040314,222577.17371906922,507041.1645819145,507168.23424914293,TASK1
2026-05-10T12:32:44.248+00:00,1089,79398,208441.32702843274,48315.64257331402,506448.5304294265,506501.4370085522,507289.53716630186,222587.36611454084,507038.28120687976,507165.3508741082,TASK1
2026-05-10T12:32:44.248+00:00,1089,79399,208439.91886853206,48335.3568119236,506439.8803043223,506493.25627008156,507281.6917039981,222599.9724984136,507029.8322474757,507156.70074900397,TASK1
2026-05-10T12:32:44.248+00:00,1089,79400,208439.44948189848,48355.74160286684,506433.51005715254,506486.61780197837,507275.3214568283,222609.0920101514,507023.4620003059,507150.59872276767,TASK1
2026-05-10T12:32:44.248+00:00,1089,79401,208449.6418773701,48366.47044020539,506423.9211587812,506477.02890360705,507265.73255845695,222616.3339753549,507013.6048810011,507141.00982439634,TASK1
2026-05-10T12:32:44.248+00:00,1089,79402,208461.98004030946,48359.563751168695,506435.1864379867,506488.56240374595,507277.53427952935,222623.8441614919,507025.1383811401,507152.81154546875,TASK1
2026-05-10T12:32:44.248+00:00,1089,79403,208464.93047057753,48365.732832638365,506426.40220241575,506479.5099472416,507268.481823025,222628.67213829423,507016.6223665026,507143.4908680309,TASK1
2026-05-10T12:32:44.248+00:00,1089,79404,208466.8080171118,48392.55492598473,506414.9357575102,506468.04350233596,507257.0153781194,222633.50011509657,507004.88770066353,507131.7562021919,TASK1
2026-05-10T12:32:44.248+00:00,1089,79405,208470.5631101803,48411.33039132719,506408.29728940694,506461.6732551662,507250.6451309496,222641.01030123356,506998.5174534938,507125.3859550221,TASK1
2026-05-10T12:32:44.248+00:00,1089,79406,208477.0004125834,48433.32450787121,506394.68507703365,506447.7928218595,507236.7646976429,222648.52048737055,506984.63702018704,507111.2373007819,TASK1
2026-05-10T12:32:44.248+00:00,1089,79407,208486.11992432116,48434.1291706716,506405.68213530566,506458.7898801315,507247.225314048,222657.90822004178,506995.36585752555,507121.96613812045,TASK1
2026-05-10T12:32:44.248+00:00,1089,79408,208491.48434299044,48446.19911267747,506397.9707834686,506451.0785282944,507239.78218314436,222665.1501852453,506987.92272662197,507114.5230072168,TASK1
2026-05-10T12:32:44.248+00:00,1089,79409,208492.5572267243,48468.19322922149,506388.1136641638,506440.9531880561,507229.9250638396,222674.80613885,506977.7973863837,507104.66588791204,TASK1
2026-05-10T12:32:44.248+00:00,1089,79410,208494.43477325854,48486.164031763554,506383.88918446173,506436.7287083541,507225.96880507097,222684.73031338814,506973.84112761513,507100.9778500769,TASK1
2026-05-10T12:32:44.248+00:00,1089,79411,208497.65342446012,48511.37679950914,506375.3731698243,506428.7491355836,507218.5256741674,222696.2638135271,506966.666217645,507093.8029401068,TASK1
2026-05-10T12:32:44.248+00:00,1089,79412,208499.53097099435,48497.76458713586,506431.69956585165,506484.8073106775,507279.14360513014,222707.52909273256,507027.0159276743,507154.1526501361,TASK1
2026-05-10T12:32:44.248+00:00,1089,79413,208494.50182849192,48459.47604888392,506468.1776128027,506521.28535762854,507311.5983380793,222708.60197646642,507059.4706606234,507186.6073830852,TASK1
2026-05-10T12:32:44.248+00:00,1089,79414,208485.18115105404,48443.44984810946,506448.6645398932,506502.0405056525,507291.0123814359,222707.86436889938,507038.88470398006,507166.5578683088,TASK1
2026-05-10T12:32:44.248+00:00,1089,79415,208478.8109038843,48442.17579867551,506432.10189725185,506485.2096420777,507274.44973879453,222706.32209853196,507022.0538404052,507149.7270047339,TASK1
2026-05-10T12:32:44.248+00:00,1089,79416,208476.19574978302,48450.75886854635,506419.29434767895,506472.6703134382,507261.64218922163,222704.24338629763,507009.24629083235,507136.919455161,TASK1
2026-05-10T12:32:44.248+00:00,1089,79417,208476.73219164993,48438.219539906924,506432.9736152856,506486.61780197837,507275.5896777618,222705.58449096495,507023.4620003059,507150.86694370117,TASK1
2026-05-10T12:32:44.248+00:00,1089,79418,208475.458142216,48424.07088566671,506431.4313449182,506484.8073106775,507274.04740739433,222704.310441531,507021.651509005,507149.5928942672,TASK1
2026-05-10T12:32:44.248+00:00,1089,79419,208471.23366251393,48428.362420602134,506423.7199930811,506477.0959588404,507266.33605555724,222705.38332526485,507014.47659903485,507141.88154243014,TASK1
2026-05-10T12:32:44.248+00:00,1089,79420,208468.88672934612,48435.33616487219,506418.95907151216,506472.3350372714,507261.84335492173,222707.79731366603,507009.98389839934,507137.38884179463,TASK1
2026-05-10T12:32:44.248+00:00,1089,79421,208466.0033543114,48464.572246619726,506407.76084754005,506461.1368132993,507251.18157281657,222708.33375553295,506998.7856744272,507126.45883875596,TASK1
2026-05-10T12:32:44.248+00:00,1089,79422,208463.92464207707,48465.64513035359,506424.6587663482,506477.76651117404,507267.81127069134,222709.94308113374,507015.68359323544,507143.0885366307,TASK1
2026-05-10T12:32:44.248+00:00,1089,79423,208462.91881357657,48457.933778516504,506426.5363128825,506479.9122786418,507269.957038159,222707.86436889938,507017.5611397697,507145.2343040984,TASK1
2026-05-10T12:32:44.248+00:00,1089,79424,208462.71764787647,48464.639301853094,506419.09318197885,506472.4691477381,507262.7821281889,222706.59031946544,507010.38622979954,507137.5229522613,TASK1
2026-05-10T12:32:44.248+00:00,1089,79425,208462.51648217638,48474.83169732471,506411.38183014176,506464.75779590104,507255.0707763518,222706.59031946544,507002.67487796245,507130.07982135774,TASK1
2026-05-10T12:32:44.248+00:00,1089,79426,208466.07040954477,48499.77624413684,506403.536367838,506456.30883649696,507245.4148227471,222710.81479916748,506993.1530348245,507120.6920886865,TASK1
2026-05-10T12:32:44.248+00:00,1089,79427,208470.3619444802,48490.18734576551,506423.9211587812,506476.96184837364,507266.0678346238,222716.44743877024,507013.8060467012,507141.3451005632,TASK1
2026-05-10T12:32:44.248+00:00,1089,79428,208468.01501131238,48481.13488926111,506420.769562813,506473.81025240547,507262.6480177221,222714.90516840282,507010.65445073304,507137.6570627281,TASK1
2026-05-10T12:32:44.248+00:00,1089,79429,208466.47274094497,48491.059063799265,506411.7171063086,506465.02601683454,507253.59556121775,222709.87602590036,507001.6019942286,507128.3363852902,TASK1
2026-05-10T12:32:44.248+00:00,1089,79430,208465.46691244448,48492.93661033351,506410.7112778081,506464.02018833405,507252.3215117838,222708.87019739987,507000.5961657281,507127.59877772315,TASK1
2026-05-10T12:32:44.248+00:00,1089,79431,208467.07623804527,48506.88409887363,506399.24483290256,506452.55374342843,507241.1232878117,222707.86436889938,506989.12972082256,507116.1323328176,TASK1
2026-05-10T12:32:44.248+00:00,1089,79432,208471.36777298068,48496.22231676844,506415.60630984383,506468.64699943626,507257.2165438195,222707.66320319928,507005.2229768304,507132.2255888254,TASK1
2026-05-10T12:32:44.248+00:00,1089,79433,208469.28906074632,48494.41182546756,506409.50428360753,506462.54497319995,507250.8462966497,222706.6573746988,506998.85272966063,507126.1235625891,TASK1
2026-05-10T12:32:44.248+00:00,1089,79434,208470.63016541363,48495.21648826796,506401.79293177044,506455.10184229637,507243.40316574613,222709.07136309997,506991.409598757,507118.6804316855,TASK1
2026-05-10T12:32:44.248+00:00,1089,79435,208473.58059568173,48505.14066280611,506393.54513806646,506446.85404859233,507235.1553720421,222710.41246776728,506983.43002598645,507110.4326379815,TASK1
2026-05-10T12:32:44.248+00:00,1089,79436,208476.7992468833,48532.4991980194,506383.15157689474,506436.4604874206,507224.7618108704,222712.02179336807,506973.03646481474,507100.0390768098,TASK1
2026-05-10T12:32:44.248+00:00,1089,79437,208481.62722368565,48523.98318338193,506402.19526317064,506455.50417369656,507244.0737180798,222714.70400270273,506991.8119301572,507119.35098401917,TASK1
2026-05-10T12:32:44.248+00:00,1089,79438,208482.968328353,48512.248517542896,506401.18943467014,506454.2301242626,507242.5314477124,222711.01596486758,506990.8061016567,507118.07693458523,TASK1
2026-05-10T12:32:44.248+00:00,1089,79439,208483.23654928643,48520.29514554681,506394.0145247,506447.5916561594,507235.6247586757,222706.79148516554,506984.1676335535,507111.17024554854,TASK1
2026-05-10T12:32:44.248+00:00,1089,79440,208486.455200488,48533.97441315345,506390.59470779833,506443.90361832426,507231.9367208406,222704.98099386465,506980.2113747849,507107.4822077134,TASK1
2026-05-10T12:32:44.248+00:00,1089,79441,208492.08784009074,48558.38251809865,506386.63844902976,506439.6791386222,507229.8580086062,222704.5116072311,506978.13266255055,507104.86705361214,TASK1
2026-05-10T12:32:44.248+00:00,1089,79442,208494.77004942537,48525.72661944945,506473.2738105385,506526.0462791975,507322.9306725181,222702.43289499675,507070.93710552895,507197.67149659054,TASK1
2026-05-10T12:32:44.248+00:00,1089,79443,208488.39980225562,48444.790952776784,506536.8421717694,506589.6146404284,507380.5981732128,222685.87025235538,507128.60460622364,507255.33899728523,TASK1
2026-05-10T12:32:44.248+00:00,1089,79444,208472.37360148117,48399.52867025479,506510.6235755233,506563.6642651158,507352.77025136596,222663.9431910447,507100.7766843768,507227.77929637185,TASK1
2026-05-10T12:32:44.248+00:00,1089,79445,208453.66519137207,48384.038911347256,506491.1105026139,506544.41941313975,507333.25717845646,222643.35723440137,507081.2636114673,507207.9980025289,TASK1
2026-05-10T12:32:44.248+00:00,1089,79446,208438.71187433146,48366.67160590549,506477.4982902406,506530.80720076646,507319.6449660832,222625.9899289596,507067.65139909403,507194.3857901556,TASK1
2026-05-10T12:32:44.248+00:00,1089,79447,208435.02383649634,48327.57840485316,506485.5449182445,506538.58560783695,507327.4233731536,222612.6459375198,507075.69802709797,507202.16419722605,TASK1
2026-05-10T12:32:44.248+00:00,1089,79448,208426.50782185886,48313.429750612944,506477.02890360705,506530.3378141329,507318.6391375827,222597.15617861226,507066.91379152704,507193.64818258863,TASK1
2026-05-10T12:32:44.248+00:00,1089,79449,208414.77315601983,48313.228584912846,506466.0989005684,506519.1395901608,507307.709134544,222583.81218717244,507055.71556755493,507182.4499586165,TASK1
2026-05-10T12:32:44.248+00:00,1089,79450,208405.9889204489,48319.39766638251,506455.1688975297,506507.9413661887,507296.7791315054,222573.41862600073,507044.78556451626,507171.51995557785,TASK1
2026-05-10T12:32:44.248+00:00,1089,79451,208402.0326616803,48340.85534105961,506442.6295688903,506495.1338166158,507283.9715819325,222562.48862296206,507031.97801494336,507158.71240600495,TASK1
2026-05-10T12:32:44.248+00:00,1089,79452,208401.2950541133,48340.11773349258,506453.8948480958,506506.3990958213,507295.23686113796,222552.09506179034,507043.2432941488,507169.9776852104,TASK1
2026-05-10T12:32:44.248+00:00,1089,79453,208397.07057441122,48343.33638469414,506445.3788334583,506497.8830811838,507286.45262556704,222541.43327968518,507034.7272795114,507161.1934496395,TASK1
2026-05-10T12:32:44.248+00:00,1089,79454,208388.8227807072,48359.161419768505,506439.276807222,506491.7810549475,507280.35059933073,222535.59947438235,507028.3570323416,507155.0914234032,TASK1
2026-05-10T12:32:44.248+00:00,1089,79455,208381.64787073707,48373.10890830861,506433.9794437861,506486.4836915116,507275.3214568283,222531.1067737468,507023.3278898392,507149.7940599673,TASK1
2026-05-10T12:32:44.248+00:00,1089,79456,208376.35050730116,48394.03014111878,506425.19520821515,506477.6994559407,507266.80544219085,222529.5645033794,507014.8118752017,507141.27804532985,TASK1
2026-05-10T12:32:44.248+00:00,1089,79457,208376.48461776788,48386.85523114863,506443.5683421574,506496.6090317499,507285.5138522999,222531.7102708471,507033.5202853108,507160.4558420725,TASK1
2026-05-10T12:32:44.248+00:00,1089,79458,208372.5283589993,48381.02142584579,506440.1485252558,506492.92099391477,507282.0940353983,222526.68112834467,507029.8322474757,507157.0360251708,TASK1
2026-05-10T12:32:44.248+00:00,1089,79459,208370.44964676496,48392.286705051265,506432.9736152856,506485.74608394457,507274.3826835612,222521.1155439753,507022.38911657204,507149.5928942672,TASK1
2026-05-10T12:32:44.248+00:00,1089,79460,208370.98608863188,48406.770635458306,506427.1398099828,506479.9122786418,507268.81709919183,222517.42750614017,507016.8235322027,507144.0273098978,TASK1
2026-05-10T12:32:44.248+00:00,1089,79461,208372.86363516614,48423.93677519998,506420.50134187954,506473.0055896051,507261.91041015513,222513.20302643813,507010.18506409944,507137.38884179463,TASK1
2026-05-10T12:32:44.248+00:00,1089,79462,208376.35050730116,48420.51695829832,506437.6674816212,506490.4399502802,507279.34477083024,222509.51498860298,507027.3512038411,507154.5549815363,TASK1
2026-05-10T12:32:44.248+00:00,1089,79463,208374.27179506683,48414.95137392895,506436.6616531207,506489.4341217797,507278.33894232975,222508.77738103596,507026.34537534066,507153.81737396924,TASK1
2026-05-10T12:32:44.248+00:00,1089,79464,208372.46130376594,48405.630696491084,506432.4371734187,506484.9414211442,507273.84624169423,222508.77738103596,507022.1208956386,507149.0564524003,TASK1
2026-05-10T12:32:44.248+00:00,1089,79465,208371.18725433198,48418.773522230804,506423.6529378478,506476.15718557325,507265.33022705675,222509.85026476983,507013.6048810011,507140.27221682935,TASK1
2026-05-10T12:32:44.248+00:00,1089,79466,208371.99191713237,48442.10874344214,506414.60048134334,506466.83650813537,507256.2777705524,222512.53247410446,507004.55242449674,507131.2197603249,TASK1
2026-05-10T12:32:44.248+00:00,1089,79467,208371.99191713237,48435.73849627238,506432.30306295195,506484.8073106775,507273.71213122754,222516.01934623948,507022.2550061053,507148.92234193353,TASK1
2026-05-10T12:32:44.248+00:00,1089,79468,208370.98608863188,48431.24579563687,506424.8599320483,506477.6324007073,507266.53722125734,222517.89689277374,507015.08009613515,507141.47921102995,TASK1
2026-05-10T12:32:44.248+00:00,1089,79469,208373.93651889998,48438.487760840384,506419.0261267455,506472.06681633793,507261.23985782143,222518.43333464066,507009.78273269924,507136.18184759404,TASK1
2026-05-10T12:32:44.248+00:00,1089,79470,208376.88694916808,48444.12040044312,506415.3380889104,506468.64699943626,507257.5518199863,222516.62284333978,507006.0946948641,507132.2255888254,TASK1
2026-05-10T12:32:44.248+00:00,1089,79471,208378.2280538354,48456.45856338245,506411.1136092083,506464.42251973425,507255.20488681854,222516.62284333978,507003.74776169634,507129.87865565764,TASK1
2026-05-10T12:32:44.248+00:00,1089,79472,208371.32136479873,48418.170025130516,506515.71977325913,506568.7604628516,507367.8576788733,222519.03683174096,507116.4005537511,507243.0678895793,TASK1
2026-05-10T12:32:44.248+00:00,1089,79473,208352.61295468963,48310.68048604494,506607.98777437065,506660.4920220962,507452.6154938478,222504.88817750075,507201.42658965907,507328.09392548725,TASK1
2026-05-10T12:32:44.248+00:00,1089,79474,208326.1261375101,48237.523226442725,506576.4047594553,506629.1772281143,507418.3502695978,222481.88823245623,507167.1613654091,507294.0969221708,TASK1
2026-05-10T12:32:44.248+00:00,1089,79475,208298.83465753015,48208.085978995085,506544.01708173956,506597.05777133204,507386.23081281554,222461.57049674637,507135.0419086268,507261.70924445504,TASK1
2026-05-10T12:32:44.248+00:00,1089,79476,208276.1029334191,48198.228859690294,506523.4311250962,506576.74003562215,507365.6448561722,222445.81251690537,507114.18773105,507240.8550668782,TASK1
2026-05-10T12:32:44.248+00:00,1089,79477,208257.12630237656,48173.35136811154,506530.67309029977,506583.98200082564,507372.61860044225,222436.49183946752,507121.16147532006,507248.09703208174,TASK1
2026-05-10T12:32:44.248+00:00,1089,79478,208237.61322946707,48164.50007730724,506519.0054796941,506572.04616928654,507360.81687936984,222427.1041067963,507108.8903676141,507235.89297960914,TASK1
2026-05-10T12:32:44.248+00:00,1089,79479,208219.97770309183,48170.400937843435,506507.27081385505,506560.3115034475,507349.3504344643,222414.2965572234,507097.15570177505,507223.89009283663,TASK1
2026-05-10T12:32:44.248+00:00,1089,79480,208208.77947911972,48174.96069371232,506498.75479921757,506551.79548881,507340.56619889336,222406.85342631978,507088.3714662041,507215.1058572657,TASK1
2026-05-10T12:32:44.248+00:00,1089,79481,208202.67745288342,48177.37468211349,506491.311668314,506544.62057883985,507333.1230679897,222406.11581875276,507080.9283353005,507208.199168229,TASK1
2026-05-10T12:32:44.248+00:00,1089,79482,208192.55211264518,48166.44467907485,506504.1862731202,506557.4951836461,507346.26589372946,222405.6464321192,507093.8029401068,507221.34199396876,TASK1
2026-05-10T12:32:44.248+00:00,1089,79483,208181.0856677396,48169.93155120988,506493.524491015,506546.83340154093,507335.87233255774,222402.494836151,507083.40937893506,507210.68021186354,TASK1
2026-05-10T12:32:44.248+00:00,1089,79484,208175.25186243677,48176.36885361301,506486.8860229118,506539.92671250424,507328.96564352105,222402.494836151,507076.7709108318,507204.04174376035,TASK1
2026-05-10T12:32:44.248+00:00,1089,79485,208169.14983620046,48184.951923483844,506481.85688040935,506534.89757000183,507323.66828008514,222404.37238268522,507072.00998926285,507199.0126012579,TASK1
2026-05-10T12:32:44.248+00:00,1089,79486,208166.26646116574,48208.55536562864,506473.34086577187,506526.6497762978,507317.0298119819,222403.90299605168,507065.10330022615,507192.1059122212,TASK1
2026-05-10T12:32:44.248+00:00,1089,79487,208159.89621399596,48194.13849045497,506526.18038966425,506579.4893001901,507373.0879870758,222404.17121698512,507121.16147532006,507248.1640873151,TASK1
2026-05-10T12:32:44.248+00:00,1089,79488,208151.3801993585,48161.48259180577,506547.9062852748,506601.48341673415,507391.0587896179,222396.1916442146,507139.1322778621,507265.8666689237,TASK1
2026-05-10T12:32:44.248+00:00,1089,79489,208138.84087071908,48144.38350729746,506532.1483054338,506585.7254368932,507375.03258884343,222389.55317611137,507122.8378561542,507249.8404681492,TASK1
2026-05-10T12:32:44.248+00:00,1089,79490,208128.9837514143,48139.086143861554,506518.5360930605,506572.1132245199,507361.1521555367,222381.57360334083,507108.95742284745,507236.228255776,TASK1
2026-05-10T12:32:44.248+00:00,1089,79491,208123.68638797838,48146.59632999854,506503.3145550865,506557.1599074793,507345.9306175626,222375.73979803798,507094.2723267403,507221.27493873535,TASK1
2026-05-10T12:32:44.248+00:00,1089,79492,208121.33945481057,48127.351478022516,506516.7256017596,506570.302733219,507359.07344330236,222370.97887646902,507107.41515248,507234.4177644751,TASK1
2026-05-10T12:32:44.248+00:00,1089,79493,208118.45607977585,48123.931661120856,506510.3553545899,506563.6642651158,507352.4349751991,222360.31709436383,507100.7766843768,507227.77929637185,TASK1
2026-05-10T12:32:44.248+00:00,1089,79494,208117.7184722088,48135.19694032633,506501.034677152,506554.6118086114,507343.38251869474,222351.80107972634,507091.45600693894,507218.458618934,TASK1
2026-05-10T12:32:44.248+00:00,1089,79495,208118.25491407575,48144.31645206409,506492.786883448,506546.3640149074,507335.40294592414,222346.7719372239,507083.74465510185,507210.47904616344,TASK1
2026-05-10T12:32:44.248+00:00,1089,79496,208118.5231350092,48165.237684874264,506483.46620601014,506536.77511653607,507326.0822684863,222345.2296668565,507074.423977664,507200.8901477921,TASK1
2026-05-10T12:32:44.248+00:00,1089,79497,208120.13246060998,48160.47676330528,506498.75479921757,506552.33193067694,507341.6390826272,222344.223838356,507089.9807918049,507216.7151828665,TASK1
2026-05-10T12:32:44.248+00:00,1089,79498,208119.93129490988,48152.7654114682,506495.87142418284,506549.71677657566,507338.48748665897,222341.60868425472,507087.0974167702,507213.83180783177,TASK1
2026-05-10T12:32:44.248+00:00,1089,79499,208120.73595771028,48160.81203947211,506489.76939794654,506543.61475033936,507332.65368135617,222338.18886735308,507081.2636114673,507207.9980025289,TASK1
2026-05-10T12:32:44.248+00:00,1089,79500,208120.2665710767,48179.3192838811,506485.276697311,506538.8538287704,507327.6245388537,222332.6232829837,507076.50268989836,507202.96886002645,TASK1
2026-05-10T12:32:44.248+00:00,1089,79501,208118.7243007093,48202.65450509245,506477.8335664074,506531.67891880026,507319.9131870166,222327.8623614147,507068.7913380613,507195.52572912286,TASK1
2026-05-10T12:32:44.694+00:00,1090,79502,208120.60184724355,48207.21426096133,506485.6119734779,506539.4573258707,507328.49625688745,222324.97898637998,507076.83796606516,507203.84057806025,TASK1
2026-05-10T12:32:44.694+00:00,1090,79503,208125.7651002127,48225.65445013696,506473.4079210053,506526.18038966425,507315.2863759144,222322.09561134526,507063.7621955588,507190.83186278725,TASK1
2026-05-10T12:32:44.694+00:00,1090,79504,208130.59307701507,48250.06255508215,506466.5012319686,506519.541921561,507308.1114659442,222323.9731578795,507056.58728558867,507183.3887318836,TASK1
2026-05-10T12:32:44.694+00:00,1090,79505,208135.15283288393,48277.152869361984,506464.6907406677,506517.7314302601,507306.3009746434,222324.24137881296,507054.7767942878,507181.3100196493,TASK1
2026-05-10T12:32:44.694+00:00,1090,79506,208143.46768182132,48291.63679976902,506463.95313310064,506516.9938226931,507305.8315880098,222325.58248348028,507054.5756285877,507181.1088539492,TASK1
2026-05-10T12:32:44.694+00:00,1090,79507,208153.9282982264,48276.68348272842,506481.92393564276,506534.9646252352,507323.5341696184,222328.53291374838,507072.2782101963,507199.07965649123,TASK1
2026-05-10T12:32:44.694+00:00,1090,79508,208159.82915876262,48272.190782092905,506477.16301407374,506530.20370366616,507318.77324804943,222329.33757654877,507067.51728862734,507194.3187349223,TASK1
2026-05-10T12:32:44.694+00:00,1090,79509,208162.24314716377,48271.72139545934,506474.01141810557,506527.32032863144,507315.6216520812,222334.70199521806,507064.3656926591,507190.8989180206,TASK1
2026-05-10T12:32:44.694+00:00,1090,79510,208165.99824023226,48283.523116531745,506466.5682872019,506519.87719772785,507308.1785211776,222339.26175108692,507057.19078268897,507183.455787117,TASK1
2026-05-10T12:32:44.694+00:00,1090,79511,208175.11775197004,48291.569744535656,506460.1980400322,506513.2387296246,507301.54005307436,222344.6261697562,507050.5523145857,507177.0855399472,TASK1
2026-05-10T12:32:44.694+00:00,1090,79512,208186.11481024206,48274.20243909388,506476.02307510655,506529.063764699,507317.0968672153,222349.1859256251,507066.10912872665,507192.9105750216,TASK1
2026-05-10T12:32:44.694+00:00,1090,79513,208189.3334614436,48279.29863682969,506468.5799442029,506521.3524128619,507309.65373631165,222349.99058842548,507058.39777688956,507185.1992231845,TASK1
2026-05-10T12:32:44.694+00:00,1090,79514,208193.8932173125,48286.54060203321,506462.74613890005,506515.51860755903,507303.8199310088,222352.6727977601,507052.8321925202,507179.3654178817,TASK1
2026-05-10T12:32:44.694+00:00,1090,79515,208203.28094998372,48289.22281136785,506457.44877546415,506510.2212441231,507298.5225675729,222354.55034429434,507047.2666081508,507174.0680544458,TASK1
2026-05-10T12:32:44.694+00:00,1090,79516,208210.52291518723,48309.33938137762,506452.15141202824,506504.9238806872,507294.83452973777,222353.81273672733,507043.5785703157,507170.3800166106,TASK1
2026-05-10T12:32:44.694+00:00,1090,79517,208212.4004617215,48287.41232006697,506528.59437806543,506581.0986257909,507376.91013537766,222352.5386872934,507125.3859550221,507252.18740131706,TASK1
2026-05-10T12:32:44.694+00:00,1090,79518,208205.4937726848,48225.52033967022,506577.94702982274,506630.4512775483,507420.63014753227,222341.60868425472,507168.8377462432,507295.90741347166,TASK1
2026-05-10T12:32:44.694+00:00,1090,79519,208192.95444404538,48187.23180141828,506556.82463131245,506609.328879038,507397.63020248775,222329.8740184157,507146.10602213215,507272.90746842715,TASK1
2026-05-10T12:32:44.694+00:00,1090,79520,208176.39180140398,48178.71578678081,506537.31155840296,506590.08402706194,507378.3853505117,222320.28512004437,507126.86117015616,507253.39439551765,TASK1
2026-05-10T12:32:44.694+00:00,1090,79521,208164.12069369803,48180.05689144813,506522.3582413624,506575.13071002136,507363.4320334711,222310.42800073957,507111.9078531155,507238.7092994105,TASK1
2026-05-10T12:32:44.694+00:00,1090,79522,208157.21400466133,48159.73915573826,506534.9646252352,506587.73709389416,507376.0384173439,222300.5708814348,507124.7824579218,507251.58390421676,TASK1
2026-05-10T12:32:44.694+00:00,1090,79523,208151.64842029195,48149.6138155,506526.18038966425,506578.95285832323,507366.9859608395,222288.83621559574,507115.7300014174,507242.5314477124,TASK1
2026-05-10T12:32:44.694+00:00,1090,79524,208147.15571965644,48152.83246670156,506519.0054796941,506571.5097274196,507359.81105086935,222280.58842189173,507108.2868705138,507235.3565377422,TASK1
2026-05-10T12:32:44.694+00:00,1090,79525,208144.00412368824,48159.00154817123,506510.4894650566,506562.72549184866,507351.0268152984,222275.02283752238,507099.2344140094,507226.84052310477,TASK1
2026-05-10T12:32:44.694+00:00,1090,79526,208143.80295798814,48179.38633911447,506498.75479921757,506551.2590469431,507339.29214945936,222267.57970661877,507087.4997481704,507215.1058572657,TASK1
2026-05-10T12:32:44.694+00:00,1090,79527,208145.94872545585,48168.724557009285,506517.53026456,506569.7662913521,507358.3358357353,222262.5505641163,507106.54343444627,507233.88132260815,TASK1
2026-05-10T12:32:44.694+00:00,1090,79528,208145.21111788883,48158.33099583757,506513.0375639245,506565.54181165004,507353.8431350998,222258.0578634808,507102.05073381076,507229.38862197264,TASK1
2026-05-10T12:32:44.694+00:00,1090,79529,208143.1324056545,48169.32805410958,506503.7168864867,506556.22113421216,507344.5224576619,222258.0578634808,507092.9982773064,507219.7997236013,TASK1
2026-05-10T12:32:44.694+00:00,1090,79530,208146.75338825624,48179.38633911447,506496.0055346496,506549.38150040887,507337.68282385863,222260.13657571515,507086.0245330363,507212.96008979797,TASK1
2026-05-10T12:32:44.694+00:00,1090,79531,208153.99535345976,48198.43002539039,506486.14841534477,506539.79260203755,507328.09392548725,222259.3989681481,507076.43563466496,507203.37119142665,TASK1
2026-05-10T12:32:44.694+00:00,1090,79532,208163.91952799793,48179.7216152813,506507.06964815495,506560.1773929808,507348.746937364,222261.27651468237,507097.35686747514,507224.0242033034,TASK1
2026-05-10T12:32:44.694+00:00,1090,79533,208169.2839466672,48176.03357744617,506499.8947381848,506552.73426207714,507341.30380646035,222259.73424431495,507089.91373657156,507216.3128514663,TASK1
2026-05-10T12:32:44.694+00:00,1090,79534,208171.16149320145,48193.46793812131,506492.1833863477,506545.02291024005,507333.86067555676,222259.26485768138,507082.20238473447,507208.6014996292,TASK1
2026-05-10T12:32:44.694+00:00,1090,79535,208171.96615600184,48210.63407786299,506486.0813601114,506538.92088400375,507327.490428387,222264.3610554172,507075.83213756466,507202.4994733929,TASK1
2026-05-10T12:32:44.694+00:00,1090,79536,208177.86701653805,48229.67776413891,506480.24755480856,506532.81885776744,507321.65662308416,222266.23860195145,507069.73011132836,507196.66566809005,TASK1
2026-05-10T12:32:44.694+00:00,1090,79537,208183.49965614078,48223.84395883608,506498.4865782841,506551.057881243,507340.16386749316,222264.1598897171,507088.23735573736,507215.17291249905,TASK1
2026-05-10T12:32:44.694+00:00,1090,79538,208185.377202675,48225.989726303786,506493.45743578166,506546.02873874054,507335.1347249907,222261.5447356158,507083.4764341684,507210.4119909301,TASK1
2026-05-10T12:32:44.694+00:00,1090,79539,208190.20517947737,48235.913900841944,506487.62363047886,506540.19493343774,507329.30091968784,222263.42228215007,507077.91084979905,507204.3099646938,TASK1
2026-05-10T12:32:44.694+00:00,1090,79540,208199.5929121486,48237.25500550926,506484.7402554441,506537.31155840296,507326.14932371967,222265.2998286843,507074.7592538308,507201.15836872556,TASK1
2026-05-10T12:32:44.694+00:00,1090,79541,208212.73573788832,48248.7885056482,506478.6382292078,506531.20953216666,507320.3155184168,222265.2998286843,507068.3890066611,507195.0563424893,TASK1
2026-05-10T12:32:44.694+00:00,1090,79542,208224.80567989417,48239.7360491438,506495.8043689495,506548.6438928418,507338.0181000254,222266.37271241818,507085.8233673362,507212.4907031644,TASK1
2026-05-10T12:32:44.694+00:00,1090,79543,208232.58408696463,48235.77979037521,506491.0434473805,506543.61475033936,507332.988957523,222266.64093335162,507080.7942248338,507207.72978159547,TASK1
2026-05-10T12:32:44.694+00:00,1090,79544,208240.09427310163,48241.94887184488,506488.4282932792,506540.9995962381,507330.37380342174,222267.445596152,507077.91084979905,507205.1146274942,TASK1
2026-05-10T12:32:44.694+00:00,1090,79545,208248.40912203898,48255.0916975846,506482.05804610945,506534.62934906833,507323.46711438504,222269.8595845532,507071.54060262925,507198.2079384575,TASK1
2026-05-10T12:32:44.694+00:00,1090,79546,208259.13795937752,48274.40360479398,506479.7111129417,506532.550636834,507323.26594868494,222269.8595845532,507071.33943692915,507197.73855182395,TASK1
2026-05-10T12:32:44.694+00:00,1090,79547,208265.3070408472,48236.3832874755,506577.6117536559,506630.4512775483,507428.67677553615,222265.63510485116,507177.01848471386,507303.4175996086,TASK1
2026-05-10T12:32:44.694+00:00,1090,79548,208260.5461192782,48155.179399869376,506647.34919635643,506699.9204993153,507491.44047396665,222249.34068314324,507239.78218314436,507366.4495189726,TASK1
2026-05-10T12:32:44.694+00:00,1090,79549,208248.81145343918,48092.21453573877,506622.7399257112,506675.04300773656,507464.4172149202,222230.9004939676,507212.4907031644,507339.4262599261,TASK1
2026-05-10T12:32:44.694+00:00,1090,79550,208237.07678760015,48055.80354402107,506598.1306550659,506650.9701789582,507439.8079442749,222216.21539786045,507188.1496534526,507314.8169892808,TASK1
2026-05-10T12:32:44.694+00:00,1090,79551,208231.51120323077,48052.38372711941,506577.54469842254,506630.38422231487,507419.490208565,222199.92097615256,507167.5636968093,507294.2310326375,TASK1
2026-05-10T12:32:44.694+00:00,1090,79552,208232.58408696463,48028.84734020797,506584.78666362603,506637.6261875184,507427.000394702,222186.0405428458,507174.53744107933,507301.74121877446,TASK1
2026-05-10T12:32:44.694+00:00,1090,79553,208234.46163349887,48016.84445343547,506574.12488152087,506626.9644054132,507415.8021707299,222174.03765607328,507163.87565897417,507290.8112157358,TASK1
2026-05-10T12:32:44.694+00:00,1090,79554,208236.60740096658,48033.74237224369,506559.7080063472,506612.54753023956,507401.3852955562,222163.37587396812,507149.190562867,507276.12611962867,TASK1
2026-05-10T12:32:44.694+00:00,1090,79555,208240.898935902,48049.83562825151,506548.2415614416,506601.34930626745,507389.91885065066,222159.41961519953,507137.455897028,507264.92789565655,TASK1
2026-05-10T12:32:44.694+00:00,1090,79556,208250.82311044016,48060.832686523514,506538.92088400375,506592.0286288296,507380.86639414623,222159.687836133,507128.40344052354,507255.8754391522,TASK1
2026-05-10T12:32:44.694+00:00,1090,79557,208268.52569204877,48043.46538108174,506551.52726787655,506604.6350127024,507393.74099895253,222161.29716173376,507141.5462662633,507268.7500439584,TASK1
2026-05-10T12:32:44.694+00:00,1090,79558,208289.98336672585,48041.65488978086,506541.9383695052,506595.04611433105,507384.1521005812,222158.95022856595,507131.95736789197,507259.1611455871,TASK1
2026-05-10T12:32:44.694+00:00,1090,79559,208313.05036700374,48048.62863405092,506533.69057580124,506586.798320627,507375.9043068772,222159.21844949943,507123.4413532545,507250.6451309496,TASK1
2026-05-10T12:32:44.694+00:00,1090,79560,208335.3127044812,48064.99011099221,506525.17456116376,506578.8187478565,507367.6565131732,222158.4808419324,507115.46178048395,507242.39733724564,TASK1
2026-05-10T12:32:44.694+00:00,1090,79561,208361.79952166075,48090.26993397116,506522.2241308956,506575.3989309548,507364.30375150486,222160.0901675332,507112.3101845157,507239.37985174416,TASK1
2026-05-10T12:32:44.694+00:00,1090,79562,208381.91609167054,48084.43612866833,506540.4631543712,506593.9061753638,507382.5427749804,222161.96771406743,507130.8174289247,507257.6188752197,TASK1
2026-05-10T12:32:44.694+00:00,1090,79563,208393.9860336764,48092.48275667224,506535.9704537357,506588.87703286135,507377.7818534114,222161.2301065004,507126.05650735577,507252.8579536507,TASK1
2026-05-10T12:32:44.694+00:00,1090,79564,208399.61867327912,48111.52644294816,506530.40486936626,506583.311448492,507372.21626904205,222164.71697863544,507120.4909229864,507247.29236928135,TASK1
2026-05-10T12:32:44.694+00:00,1090,79565,208409.5428478173,48126.27859428866,506527.52149433154,506580.1598525238,507369.0646730739,222170.34961823816,507117.07110608474,507244.1407733131,TASK1
