timestamp_utc,packet_index,sample_index,AF3,AF4,F3,F4,FC5,FC6,O2,O1,label
2026-05-10T12:33:53.538+00:00,1269,96702,188536.58450085935,59141.44177930854,509024.92660581187,509077.76612970425,509873.97997069114,219781.5739848106,509619.70652576763,509746.50797206257,TASK2
2026-05-10T12:33:53.538+00:00,1269,96703,188545.7040125971,59148.415523578595,509038.874094352,509091.71361824434,509887.9274592313,219789.88883374794,509633.38579337427,509760.45546060265,TASK2
2026-05-10T12:33:53.538+00:00,1269,96704,188554.01886153448,59134.53509027185,509038.6729286519,509091.71361824434,509887.9274592313,219799.81300828612,509633.38579337427,509760.45546060265,TASK2
2026-05-10T12:33:53.538+00:00,1269,96705,188561.79726860492,59132.99281990443,509029.6204721475,509082.66116173996,509878.6067817934,219816.17448522738,509624.33333686984,509751.13478316483,TASK2
2026-05-10T12:33:53.538+00:00,1269,96706,188566.3570244738,59143.98987817644,509024.8595505785,509078.16846110445,509876.5280695591,219832.80418310213,509621.98640370206,509748.787849997,TASK2
2026-05-10T12:33:53.538+00:00,1269,96707,188567.42990820765,59146.40386657762,509098.0838654141,509151.39277594,509955.3850239974,219838.70504363833,509700.5751372069,509827.3765835019,TASK2
2026-05-10T12:33:53.538+00:00,1269,96708,188565.08297503984,59082.634339646625,509162.1886685119,509214.9611371709,510011.97964095825,219841.9236948399,509757.7061960347,509884.5076423296,TASK2
2026-05-10T12:33:53.538+00:00,1269,96709,188554.9576348016,59035.22628965691,509144.82136307016,509197.59383172914,509994.344114583,219846.75167164224,509739.80244872597,509866.6038950209,TASK2
2026-05-10T12:33:53.538+00:00,1269,96710,188544.83229456336,59018.39542608206,509124.23540642683,509177.0078750858,509973.75815793965,219848.6292181765,509718.9482711492,509846.01793837757,TASK2
2026-05-10T12:33:53.538+00:00,1269,96711,188536.8527217928,59008.001864910344,509110.3549731201,509163.12744177907,509959.34128276596,219852.384311245,509705.0678378424,509831.8692841374,TASK2
2026-05-10T12:33:53.538+00:00,1269,96712,188530.48247462304,59012.29339984576,509091.646563011,509144.41903166997,509940.6328726569,219862.04026484967,509686.09120679984,509812.89265309484,TASK2
2026-05-10T12:33:53.538+00:00,1269,96713,188525.18511118714,59005.11848987561,509098.62030728103,509151.92921780696,509948.14305879385,219873.03732312168,509693.3331720034,509820.4028392318,TASK2
2026-05-10T12:33:53.538+00:00,1269,96714,188519.08308495083,58995.52959150428,509096.80981598014,509150.1187265061,509946.0643465595,219878.1335208575,509691.25445976906,509818.59234793094,TASK2
2026-05-10T12:33:53.538+00:00,1269,96715,188513.249279648,59004.11266137512,509085.87981294154,509138.92050253396,509935.1343435209,219883.49793952677,509680.59267766384,509807.39412395883,TASK2
2026-05-10T12:33:53.538+00:00,1269,96716,188510.0976836798,59026.91144071953,509076.0226936367,509129.06338322914,509925.2772242161,219892.0810093976,509670.4673374256,509797.8052255875,TASK2
2026-05-10T12:33:53.538+00:00,1269,96717,188510.36590461325,59037.372057124616,509065.629132465,509118.401601124,509914.6154421109,219908.17426540543,509659.8055553204,509787.4116644158,TASK2
2026-05-10T12:33:53.538+00:00,1269,96718,188512.77989301443,59013.031007412785,509078.50373727124,509131.5444268637,509927.7582678506,219928.82727728214,509672.6801601267,509800.01804828853,TASK2
2026-05-10T12:33:53.538+00:00,1269,96719,188512.04228544742,59006.124318376096,509073.20637383533,509126.51528436126,509922.4609044147,219946.52985889075,509667.1145757573,509794.4524639192,TASK2
2026-05-10T12:33:53.538+00:00,1269,96720,188512.04228544742,59015.24383011386,509063.617475464,509116.92638598994,509912.60378510994,219964.5006614328,509657.525677386,509784.86356554786,TASK2
2026-05-10T12:33:53.538+00:00,1269,96721,188514.45627384857,59035.96389722393,509059.05771959515,509111.7631330208,509908.4463606413,219983.6114029421,509654.3740814178,509781.4437486462,TASK2
2026-05-10T12:33:53.538+00:00,1269,96722,188515.52915758244,59045.619850828625,509075.6874174699,509128.92927276244,509926.6853841168,219998.09533334913,509672.6131048933,509799.4145511883,TASK2
2026-05-10T12:33:53.538+00:00,1269,96723,188517.94314598362,59026.3749988526,509096.87687121355,509150.1187265061,509945.4608494592,220008.55594975423,509691.65679116925,509818.19001653075,TASK2
2026-05-10T12:33:53.538+00:00,1269,96724,188515.5962128158,59013.031007412785,509090.2384031103,509143.2120374694,509938.5541604225,220016.87079869158,509684.48188119906,509811.28332749405,TASK2
2026-05-10T12:33:53.538+00:00,1269,96725,188511.63995404722,59015.981437680886,509077.96729540435,509130.6727088299,509926.55127365,220031.35472909862,509672.2107734931,509799.28044072154,TASK2
2026-05-10T12:33:53.538+00:00,1269,96726,188506.61081154476,59021.077635416696,509067.8419551661,509120.81558952515,509916.69415434526,220056.83571777766,509662.35365418834,509789.95976328367,TASK2
2026-05-10T12:33:53.538+00:00,1269,96727,188500.50878530846,59032.611135555635,509052.8886381255,509105.8622724846,509901.7408373047,220087.681125126,509647.6685580812,509775.0064462431,TASK2
2026-05-10T12:33:53.538+00:00,1269,96728,188497.8936312072,59024.095120918166,509063.0810335971,509116.32288888964,509911.9332327763,220119.06297434124,509657.8609535528,509785.1988417147,TASK2
2026-05-10T12:33:53.538+00:00,1269,96729,188492.05982590438,59021.47996681689,509059.9294376289,509113.1712929214,509908.78163680807,220152.05414915728,509654.7093575846,509782.31546668,TASK2
2026-05-10T12:33:53.538+00:00,1269,96730,188485.95779966807,59033.54990882276,509048.9994345903,509102.50951081625,509897.85163376946,220185.04532397332,509643.779354546,509771.1172427079,TASK2
2026-05-10T12:33:53.538+00:00,1269,96731,188481.46509903256,59040.523653092816,509043.1656292874,509096.40748457995,509891.48138659965,220218.03649878936,509637.6773283097,509765.01521647157,TASK2
2026-05-10T12:33:53.538+00:00,1269,96732,188482.26976183293,59047.76561829633,509031.69918438187,509085.20926060784,509880.55138356105,220252.90522013963,509626.747325271,509754.0852134329,TASK2
2026-05-10T12:33:53.538+00:00,1269,96733,188488.17062236913,59032.81230125573,509042.4280217204,509095.66987701296,509890.74377903267,220289.9197089576,509637.2079416761,509764.54582983797,TASK2
2026-05-10T12:33:53.538+00:00,1269,96734,188490.5846107703,59031.001809954854,509037.93532108486,509091.17717637744,509885.98285746365,220321.30155817285,509632.71524104057,509760.05312920245,TASK2
2026-05-10T12:33:53.538+00:00,1269,96735,188491.65749450418,59044.6810775615,509028.0782017801,509081.0518361392,509876.1257381589,220347.5872096523,509622.32167986885,509749.92778896424,TASK2
2026-05-10T12:33:53.538+00:00,1269,96736,188491.1881078706,59064.529426637826,509025.73126861226,509078.4366820379,509875.9245724588,220370.3859889967,509621.8522932353,509749.72662326414,TASK2
2026-05-10T12:33:53.538+00:00,1269,96737,188483.47675603352,59068.016298772854,509117.1946069234,509170.16824128246,509977.5803062415,220384.86991940375,509723.2398060846,509851.3823570469,TASK2
2026-05-10T12:33:53.538+00:00,1269,96738,188472.81497392835,58973.133143560066,509243.7948875183,509296.76852187735,510095.5975169655,220388.62501247224,509840.98879587516,509969.3995677709,TASK2
2026-05-10T12:33:53.538+00:00,1269,96739,188450.88791261768,58897.830116490135,509219.185616873,509272.15925123205,510067.23315325176,220380.37721876823,509812.89265309484,509941.0352040571,TASK2
2026-05-10T12:33:53.538+00:00,1269,96740,188427.6197466397,58872.14796211099,509186.79793915723,509239.7715735163,510035.38191740296,220374.0069715985,509780.5049753791,509908.9157472748,TASK2
2026-05-10T12:33:53.538+00:00,1269,96741,188406.49734812946,58856.65820320346,509166.48020344734,509219.4538378064,510015.0641816931,220374.5434134654,509759.91901873576,509888.86623249843,TASK2
2026-05-10T12:33:53.538+00:00,1269,96742,188389.6664845546,58861.955566639364,509145.2907497037,509198.19732882944,509993.87472794944,220382.6570967027,509739.60128302587,509867.2744473546,TASK2
2026-05-10T12:33:53.538+00:00,1269,96743,188374.98138844746,58845.124703064525,509152.26449397375,509204.90285216604,510000.3120303526,220397.67746897665,509746.30680636247,509873.7117497577,TASK2
2026-05-10T12:33:53.538+00:00,1269,96744,188360.5645132738,58823.46586268733,509144.2849212032,509196.9232793955,509992.06423664856,220416.4529343191,509738.0590126584,509865.1957351202,TASK2
2026-05-10T12:33:53.538+00:00,1269,96745,188344.8065334328,58832.85359535856,509130.13626696303,509182.77462515526,509977.9155824084,220432.8144112604,509723.91035841824,509850.7788599466,TASK2
2026-05-10T12:33:53.538+00:00,1269,96746,188332.53542572685,58851.89728163448,509119.20626392437,509172.1128430501,509967.25380030315,220443.27502766548,509712.9803553796,509839.8488569079,TASK2
2026-05-10T12:33:53.538+00:00,1269,96747,188326.43339949055,58878.98759591431,509108.00803995226,509160.6463981445,509955.7873553976,220442.269199165,509701.513910474,509828.38241200236,TASK2
2026-05-10T12:33:53.538+00:00,1269,96748,188326.96984135747,58883.010909916266,509121.6873075589,509174.3256657512,509969.1984020708,220435.63073106177,509715.4613990141,509842.061679609,TASK2
2026-05-10T12:33:53.538+00:00,1269,96749,188325.69579192353,58887.30244485169,509116.389944123,509169.0283023153,509963.9010386349,220431.94269322662,509710.4322565117,509837.03253710654,TASK2
2026-05-10T12:33:53.538+00:00,1269,96750,188322.00775408838,58902.591038059116,509105.99638295127,509158.63474114356,509953.50747746316,220431.74152752652,509700.03869534,509826.1025340679,TASK2
2026-05-10T12:33:53.538+00:00,1269,96751,188321.0019255879,58915.19742193191,509103.91767071694,509156.82424984267,509953.30631176307,220432.00974846,509700.03869534,509826.1025340679,TASK2
2026-05-10T12:33:53.538+00:00,1269,96752,188320.53253895434,58912.8504887641,509171.77756688325,509224.9523669424,510027.0670684656,220427.248826891,509773.7994520425,509900.1315117039,TASK2
2026-05-10T12:33:53.538+00:00,1269,96753,188316.57628018575,58854.17715956892,509242.3196723842,509295.49447244336,510091.17187156336,220414.70949825158,509838.1724760738,509964.5045357352,TASK2
2026-05-10T12:33:53.538+00:00,1269,96754,188305.10983528016,58808.64665611346,509220.92905294045,509273.8356320662,510068.44014745235,220396.0010881425,509814.9043100958,509941.50459069066,TASK2
2026-05-10T12:33:53.538+00:00,1269,96755,188291.76584384035,58795.839106540574,509197.92910789594,509250.5674660882,510045.1719814744,220381.8524339023,509791.6361441178,509918.2364247127,TASK2
2026-05-10T12:33:53.538+00:00,1269,96756,188279.76295706787,58804.42217641141,509178.68425591994,509231.5908350457,510025.92712949833,220369.58132619632,509772.65951307525,509898.99157273665,TASK2
2026-05-10T12:33:53.538+00:00,1269,96757,188274.1973726985,58824.002304554255,509159.43940394395,509212.0777621362,510006.68227752234,220358.3831022242,509753.41466109926,509879.74672076065,TASK2
2026-05-10T12:33:53.538+00:00,1269,96758,188272.65510233107,58822.46003418684,509171.77756688325,509224.4159250755,510019.02044046164,220353.35395972178,509765.75282403856,509892.08488369995,TASK2
2026-05-10T12:33:53.538+00:00,1269,96759,188270.5763900967,58811.5300311482,509167.5530871812,509220.19144537346,510014.5277398261,220348.86125908626,509761.26012340304,509887.59218306444,TASK2
2026-05-10T12:33:53.538+00:00,1269,96760,188266.62013132815,58833.52414769222,509153.67265387444,509206.3110120667,510000.6473065194,220341.14990724917,509747.3796900963,509873.7117497577,TASK2
2026-05-10T12:33:53.538+00:00,1269,96761,188264.27319816034,58862.76022943976,509142.47442990233,509195.1127880946,509989.7173034808,220329.95168327706,509736.44968705764,509862.7817467191,TASK2
2026-05-10T12:33:53.538+00:00,1269,96762,188268.29651216228,58879.38992731451,509135.03129899874,509187.66965719097,509982.5423935106,220321.97211050653,509729.2747770875,509855.6068367489,TASK2
2026-05-10T12:33:53.538+00:00,1269,96763,188275.00203549888,58869.53280800972,509149.24700847233,509201.3489247976,509996.2216611172,220317.479409871,509743.22226562764,509869.28610435553,TASK2
2026-05-10T12:33:53.538+00:00,1269,96764,188279.56179136777,58870.87391267704,509143.9496450364,509196.3197822952,509991.1925186148,220310.8409417678,509738.1931231252,509864.2569618531,TASK2
2026-05-10T12:33:53.538+00:00,1269,96765,188285.9990937709,58885.35784308407,509137.3111769332,509189.68131419196,509984.55405051156,220302.86136899723,509731.55465502193,509857.8867146833,TASK2
2026-05-10T12:33:53.538+00:00,1269,96766,188289.7541868394,58907.62018056156,509127.9904994953,509180.3606367541,509974.96515214024,220294.61357529322,509722.2339775841,509848.297816312,TASK2
2026-05-10T12:33:53.538+00:00,1269,96767,188296.52676540933,58936.8562623091,509120.0779819581,509172.78339538374,509968.12551833695,220290.79142699137,509714.3214600469,509841.0558511085,TASK2
2026-05-10T12:33:53.538+00:00,1269,96768,188306.18271901403,58935.582212875146,509133.4890286313,509186.4626629904,509981.26834407664,220287.3716100897,509727.4642857866,509853.93045591476,TASK2
2026-05-10T12:33:53.538+00:00,1269,96769,188311.27891674984,58938.53264314325,509127.387002395,509180.6288576876,509975.16631784034,220284.48823505497,509721.09403861687,509848.0966506119,TASK2
2026-05-10T12:33:53.538+00:00,1269,96770,188317.17977728604,58947.92037581448,509119.6756505579,509172.649284917,509967.45496600325,220284.28706935488,509713.6509077133,509840.6535197083,TASK2
2026-05-10T12:33:53.538+00:00,1269,96771,188323.88530062264,58968.84160862464,509111.6960777874,509164.66971214645,509959.74361416616,220285.35995308874,509705.6713349427,509832.4057260043,TASK2
2026-05-10T12:33:53.538+00:00,1269,96772,188332.20014956,58994.59081823716,509101.8389584826,509155.08081377513,509949.8864948614,220289.38326709068,509695.8142156379,509822.81682763295,TASK2
2026-05-10T12:33:53.538+00:00,1269,96773,188341.58788223125,59000.22345783989,509112.0313539542,509165.27320924675,509959.81066939957,220292.0654764253,509705.7383901761,509833.0092231046,TASK2
2026-05-10T12:33:53.538+00:00,1269,96774,188349.9027311686,59001.83278344068,509109.1479789195,509162.389834212,509956.92729436484,220288.91388045714,509702.58679420786,509830.12584806985,TASK2
2026-05-10T12:33:53.538+00:00,1269,96775,188356.34003357173,59015.24383011386,509103.5823945501,509156.55602890917,509951.093489062,220283.88473795468,509696.75298890506,509824.29204276705,TASK2
2026-05-10T12:33:53.538+00:00,1269,96776,188363.58199877525,59037.506167591346,509100.96724044887,509154.47731667483,509948.74655589415,220274.56406051683,509694.4060557372,509821.9451095992,TASK2
2026-05-10T12:33:53.995+00:00,1270,96777,188372.43328957955,59062.987156270414,509094.06055141217,509147.3024067047,509941.8398668575,220258.2696388089,509687.49936670053,509815.0384205625,TASK2
2026-05-10T12:33:53.995+00:00,1270,96778,188383.43034785156,59072.10666800818,509103.1800631499,509156.4219184425,509950.95937859523,220237.68368216557,509696.6188784383,509823.88971136685,TASK2
2026-05-10T12:33:53.995+00:00,1270,96779,188393.89096425666,59086.32237748175,509101.36957184906,509154.87964807503,509949.41710822785,220212.26974871987,509694.8083871374,509822.3474409994,TASK2
2026-05-10T12:33:53.995+00:00,1270,96780,188403.27869692788,59111.8033661608,509096.3404293466,509150.3869474395,509945.1926285258,220179.88207100413,509690.3156865019,509818.12296129734,TASK2
2026-05-10T12:33:53.995+00:00,1270,96781,188409.715999331,59144.25809910991,509094.26171711227,509147.77179333824,509945.1926285258,220145.88506768763,509690.58390743536,509818.39118223084,TASK2
2026-05-10T12:33:53.995+00:00,1270,96782,188412.39820866566,59146.67208751108,509182.2381832883,509236.0164804478,510040.6792808389,220116.17959930652,509785.802338815,509913.8778345439,TASK2
2026-05-10T12:33:53.995+00:00,1270,96783,188407.63728709667,59062.785990570315,509282.55281240377,509336.33110956324,510132.9472819503,220084.06014252425,509877.802118993,510006.41405658884,TASK2
2026-05-10T12:33:53.995+00:00,1270,96784,188392.4157491226,59001.430452040484,509256.3342161577,509309.8442923837,510104.58291823656,220048.99025547385,509849.43775527924,509978.04969287507,TASK2
2026-05-10T12:33:53.995+00:00,1270,96785,188378.53531581585,58978.69872792943,509226.62874777656,509280.1388240026,510074.87744985544,220021.9669964274,509819.7322868981,509948.0760035605,TASK2
2026-05-10T12:33:53.995+00:00,1270,96786,188366.53242904335,58969.10982955811,509203.89702366554,509257.4070998915,510052.1457257444,220002.18570258445,509796.7323418536,509925.076058516,TASK2
2026-05-10T12:33:53.995+00:00,1270,96787,188355.8706469382,58977.69289942895,509185.99327635684,509239.50335258286,510034.2419784357,219984.8183971427,509778.8285945449,509907.1723112073,TASK2
2026-05-10T12:33:53.995+00:00,1270,96788,188347.3546323007,58961.39847772103,509192.9670206269,509246.2088759194,510040.9475017723,219978.98459183984,509785.5341178815,509914.1460554774,TASK2
2026-05-10T12:33:53.995+00:00,1270,96789,188337.76573392938,58952.88246308356,509180.6959129209,509233.66954728,510028.67639406637,219979.78925464023,509772.9947892421,509901.8749477714,TASK2
2026-05-10T12:33:53.995+00:00,1270,96790,188329.78616115885,58964.68418415596,509168.1565842815,509221.13021864055,510016.1370654269,219982.47146397489,509760.45546060265,509889.06739819853,TASK2
2026-05-10T12:33:53.995+00:00,1270,96791,188325.29346052333,58972.99903309333,509156.95836030936,509209.93199466844,510004.9388414548,219989.44520824493,509749.25723663054,509877.8691742264,TASK2
2026-05-10T12:33:53.995+00:00,1270,96792,188324.55585295628,58985.068975099195,509147.1012410046,509200.3430962971,509995.6181640169,220000.17404558347,509739.9365591927,509868.54849678854,TASK2
2026-05-10T12:33:53.995+00:00,1270,96793,188325.62873669015,58981.11271633061,509157.2936364762,509210.80371270224,510005.81055948854,220010.09822012164,509750.12895466434,509879.0091131936,TASK2
2026-05-10T12:33:53.995+00:00,1270,96794,188323.68413492254,58984.19725706544,509152.5997701406,509205.640459733,510001.11669315293,220019.9553394264,509747.11146916286,509874.04702592455,TASK2
2026-05-10T12:33:53.995+00:00,1270,96795,188318.11855055316,58995.99897813784,509141.13332523505,509193.905793894,509988.845585447,220036.85325823462,509734.8403614569,509862.04413915204,TASK2
2026-05-10T12:33:53.995+00:00,1270,96796,188311.7483033834,59022.55285055075,509130.4715431298,509183.5122327223,509980.3295708095,220056.96982824442,509726.0561258859,509852.9916826476,TASK2
2026-05-10T12:33:53.995+00:00,1270,96797,188308.06026554827,59028.18549015348,509183.57928795565,509236.0835356812,510038.53351337113,220061.5295841133,509784.528289381,509911.4638461427,TASK2
2026-05-10T12:33:53.995+00:00,1270,96798,188307.32265798125,58978.89989362953,509255.9989399908,509308.50318771636,510105.3205258036,220040.40718560302,509851.583522747,509978.51907950867,TASK2
2026-05-10T12:33:53.995+00:00,1270,96799,188300.41596894455,58948.38976244804,509239.9727392164,509292.47698694194,510087.95322036184,220007.48306602036,509833.9479963717,509960.8835531334,TASK2
2026-05-10T12:33:53.995+00:00,1270,96800,188293.77750084133,58940.94663154442,509222.0689919077,509274.8414605667,510070.04947305314,219974.82716737114,509816.044249063,509942.9798058247,TASK2
2026-05-10T12:33:53.995+00:00,1270,96801,188289.82124207274,58948.45681768141,509206.3110120667,509259.0834807257,510054.02327227866,219943.51237338927,509800.01804828853,509927.2218259837,TASK2
2026-05-10T12:33:53.995+00:00,1270,96802,188288.01075077188,58974.47424822738,509189.48014849186,509242.5208380843,510037.4606296373,219910.32003287313,509783.45540564717,509910.39096240886,TASK2
2026-05-10T12:33:53.995+00:00,1270,96803,188289.3518554392,58973.20019879343,509197.2585555623,509250.5674660882,510045.5072576412,219888.39297156248,509791.77025458455,509918.4375904128,TASK2
2026-05-10T12:33:53.995+00:00,1270,96804,188287.27314320483,58975.88240812807,509189.8154246587,509243.1243351846,510038.0641267376,219872.90321265496,509784.05890274746,509910.99445950915,TASK2
2026-05-10T12:33:53.995+00:00,1270,96805,188282.51222163587,58990.09811760164,509179.1536425535,509232.19433214597,510027.40234463237,219863.04609335016,509773.3971206423,509900.332677404,TASK2
2026-05-10T12:33:53.995+00:00,1270,96806,188279.62884660112,59008.8735829441,509169.2965232487,509222.0689919077,510017.00878346065,219852.384311245,509763.0035594706,509889.9391162323,TASK2
2026-05-10T12:33:53.995+00:00,1270,96807,188281.2381722019,59036.76856002432,509158.36652021005,509211.13898886903,510006.3470013555,219837.4309942044,509752.34177736536,509879.0091131936,TASK2
2026-05-10T12:33:53.995+00:00,1270,96808,188288.48013740542,59034.68984778998,509169.63179941557,509222.13604714104,510017.3440596275,219828.64675863346,509763.3388356374,509890.0061714656,TASK2
2026-05-10T12:33:53.995+00:00,1270,96809,188296.7949863428,59028.58782155368,509167.5530871812,509220.0573349067,510014.9971264597,219816.9120927944,509761.26012340304,509887.9274592313,TASK2
2026-05-10T12:33:53.995+00:00,1270,96810,188301.3547422117,59054.33703116621,509155.5502004087,509208.32266906765,510003.5306815541,219802.76343855422,509749.52545756404,509876.1927933922,TASK2
2026-05-10T12:33:53.995+00:00,1270,96811,188306.18271901403,59076.59936864369,509146.4977439043,509199.2702125633,509994.47822504974,219797.4660751183,509740.7412219931,509867.4085578213,TASK2
2026-05-10T12:33:53.995+00:00,1270,96812,188314.76578888486,59098.05704332079,509139.85927580105,509192.3635235266,509987.8397569465,219793.77803728316,509734.10275388986,509860.7700897181,TASK2
2026-05-10T12:33:53.995+00:00,1270,96813,188325.49462622343,59090.34569148371,509151.66099687346,509204.43346553243,509999.6414780189,219792.23576691575,509745.6362540288,509872.303589857,TASK2
2026-05-10T12:33:53.995+00:00,1270,96814,188333.54125422734,59098.66054042108,509143.6814241029,509196.4538927619,509991.9301261818,219786.13374067945,509737.65668125823,509864.3240170865,TASK2
2026-05-10T12:33:53.995+00:00,1270,96815,188341.0514403643,59113.68091269505,509135.97007226583,509188.47431999136,509984.2187743448,219784.05502844512,509729.9453294212,509856.6126652494,TASK2
2026-05-10T12:33:53.995+00:00,1270,96816,188347.22052183398,59124.14152910013,509128.52694136224,509181.0311890878,509977.0438643746,219790.7605517817,509722.770419451,509849.7059762127,TASK2
2026-05-10T12:33:53.995+00:00,1270,96817,188354.73070797097,59139.96656417449,509116.52405458974,509168.76008138177,509964.7727566686,219803.90337752143,509710.49931174505,509837.1666475733,TASK2
2026-05-10T12:33:53.995+00:00,1270,96818,188363.85021970872,59133.0598751378,509129.13043846254,509181.6346861881,509977.3791405414,219823.48350566428,509723.3739165513,509849.7730314461,TASK2
2026-05-10T12:33:53.995+00:00,1270,96819,188368.4099755776,59130.98116290345,509126.51528436126,509178.7513111533,509974.2275445732,219841.45430820633,509720.49054151657,509846.88965641137,TASK2
2026-05-10T12:33:53.995+00:00,1270,96820,188373.23795237995,59147.6108607782,509116.92638598994,509168.8941918485,509964.9068671354,219855.93823861337,509710.6334222118,509837.03253710654,TASK2
2026-05-10T12:33:53.995+00:00,1270,96821,188376.72482451497,59170.14141918915,509109.7514760198,509162.5239446788,509958.53661996557,219866.66707595193,509703.99495410855,509830.6622899368,TASK2
2026-05-10T12:33:53.995+00:00,1270,96822,188382.89390598465,59185.43001239658,509101.77190324926,509154.27615097474,509950.02060532814,219882.22389009284,509695.7471604046,509822.1462752993,TASK2
2026-05-10T12:33:53.995+00:00,1270,96823,188392.0134177224,59169.940253489054,509113.0371824547,509165.54143018025,509961.2858845336,219904.21800663683,509707.01243961003,509833.41155450477,TASK2
2026-05-10T12:33:53.995+00:00,1270,96824,188397.37783639168,59165.715773787,509104.2529468838,509156.75719460926,509952.5016489627,219928.62611158204,509698.2282040391,509824.62731893384,TASK2
2026-05-10T12:33:53.995+00:00,1270,96825,188403.34575216126,59176.377555892184,509098.62030728103,509151.32572070666,509946.5337331931,219959.7397398638,509692.39439873624,509819.6652316648,TASK2
2026-05-10T12:33:53.995+00:00,1270,96826,188406.29618242936,59185.76528856341,509089.8360717101,509142.54148513573,509937.74949762214,219987.63471694404,509683.6101631653,509811.1492170273,TASK2
2026-05-10T12:33:53.995+00:00,1270,96827,188409.5148336309,59209.63695164168,509082.9293826734,509135.9030170325,509930.8428085855,220012.04282188925,509676.7034741286,509804.5107489241,TASK2
2026-05-10T12:33:53.995+00:00,1270,96828,188414.61103136672,59203.80314633884,509096.60865028005,509149.5822846391,509944.52207619214,220030.55006629822,509690.1145208018,509817.92179559724,TASK2
2026-05-10T12:33:53.995+00:00,1270,96829,188418.90256630213,59208.09468127426,509087.28797284217,509139.9933862678,509934.9331778208,220045.0339967053,509680.79384336394,509808.3328972259,TASK2
2026-05-10T12:33:53.995+00:00,1270,96830,188422.65765937063,59224.456158215544,509080.649504739,509133.3549181646,509928.0264887841,220061.66369458003,509674.15537526074,509801.4262081892,TASK2
2026-05-10T12:33:53.995+00:00,1270,96831,188428.8267408403,59238.13542582219,509073.7428157023,509126.4482291279,509921.38802068087,220075.61118312014,509667.24868622405,509794.5195191525,TASK2
2026-05-10T12:33:53.995+00:00,1270,96832,188436.06870604382,59260.93420516661,509065.2268010648,509117.9322144904,509912.8720060434,220091.167997261,509658.73267158656,509786.0035045151,TASK2
2026-05-10T12:33:53.995+00:00,1270,96833,188441.96956658002,59264.6892982351,509074.3463128026,509127.0517262282,509921.7232968477,220109.1387998031,509667.5839623909,509794.8547953194,TASK2
2026-05-10T12:33:53.995+00:00,1270,96834,188448.67508991662,59255.6368417307,509071.7311587013,509124.7047930604,509919.10814274644,220125.23205581092,509664.7005873561,509792.2396412181,TASK2
2026-05-10T12:33:53.995+00:00,1270,96835,188457.25815978745,59258.05083013187,509064.2880277977,509116.9934412233,509911.6650118428,220138.6431024841,509657.2574564525,509784.7965103145,TASK2
2026-05-10T12:33:53.995+00:00,1270,96836,188462.62257845674,59288.091574679805,509053.894466626,509106.3316591181,509901.00322973763,220143.47107928645,509646.8638952808,509774.1347282093,TASK2
2026-05-10T12:33:53.995+00:00,1270,96837,188470.1327645937,59316.79121456042,509047.25599852274,509100.2296328818,509894.90120350133,220144.00752115337,509640.22542717756,509768.032701973,TASK2
2026-05-10T12:33:53.995+00:00,1270,96838,188481.66626473263,59313.63961859222,509059.3259405286,509112.2995748877,509906.70292457374,220149.6401607561,509652.2953691834,509779.8344230454,TASK2
2026-05-10T12:33:53.995+00:00,1270,96839,188490.7857764704,59311.560906357874,509055.36968176,509108.3433161191,509902.74666580517,220152.05414915728,509648.33911041485,509775.6099433434,TASK2
2026-05-10T12:33:53.995+00:00,1270,96840,188500.4417300751,59322.02152276296,509049.5358764572,509102.50951081625,509896.9128605023,220149.17077412255,509642.505305112,509769.7761380405,TASK2
2026-05-10T12:33:53.995+00:00,1270,96841,188507.68369527863,59342.674534639664,509042.897408354,509095.87104271306,509891.07905519946,220143.06874788625,509636.93972074264,509764.2105536712,TASK2
2026-05-10T12:33:53.995+00:00,1270,96842,188514.38921861522,59361.98644184905,509067.8419551661,509120.81558952515,509920.5833578805,220138.84426818418,509666.7122443571,509793.7148563522,TASK2
2026-05-10T12:33:53.995+00:00,1270,96843,188520.02185821795,59331.74453160102,509122.02258372575,509174.7279971514,509970.7406724382,220133.81512568175,509716.60133798135,509843.6039499764,TASK2
2026-05-10T12:33:53.995+00:00,1270,96844,188520.29007915143,59301.77084228645,509114.5794528221,509167.5530871812,509961.6882159338,220123.42156451003,509707.8171024104,509834.551493472,TASK2
2026-05-10T12:33:53.995+00:00,1270,96845,188521.09474195182,59291.10906018127,509100.1625776485,509153.13621200755,509947.2713407601,220115.4419917395,509693.1320063033,509820.1346182983,TASK2
2026-05-10T12:33:53.995+00:00,1270,96846,188522.03351521894,59287.35396711278,509088.4279118094,509141.8038775687,509936.4754481882,220117.45364874045,509682.1349480313,509809.27167049306,TASK2
2026-05-10T12:33:53.995+00:00,1270,96847,188520.75946578497,59291.91372298166,509073.20637383533,509126.31411866116,509920.9856892807,220122.5498464763,509666.9134100572,509794.050132519,TASK2
2026-05-10T12:33:53.995+00:00,1270,96848,188522.90523325268,59285.007033944974,509079.10723437154,509132.21497919736,509926.8865498169,220128.98714887942,509672.8142705934,509799.9509930552,TASK2
2026-05-10T12:33:53.995+00:00,1270,96849,188524.78277978694,59279.977891442526,509074.07809186913,509127.4540576284,509922.1256282479,220134.88800941562,509668.05334902444,509795.1900714862,TASK2
2026-05-10T12:33:53.995+00:00,1270,96850,188524.78277978694,59287.75629851298,509068.2442865663,509121.888473259,509916.29182294506,220136.76555594985,509662.2195437216,509789.6244871168,TASK2
2026-05-10T12:33:53.995+00:00,1270,96851,188527.46498912157,59303.31311265387,509061.3375975296,509114.71356328885,509909.1169129749,220130.93175064703,509655.3128546849,509782.7177980802,TASK2
2026-05-10T12:33:53.995+00:00,1270,96852,188532.56118685738,59322.625019863255,509049.6029316906,509102.9788974498,509897.1140262024,220122.95217787646,509643.3099679124,509770.9831322411,TASK2
2026-05-10T12:33:53.995+00:00,1270,96853,188535.243396192,59325.30722919789,509061.1364318295,509114.2441766553,509908.37930540787,220119.8005819083,509654.84346805135,509782.5166323801,TASK2
2026-05-10T12:33:53.995+00:00,1270,96854,188536.0480589924,59325.57545013136,509055.0344055932,509108.142150419,509902.27727917157,220121.40990750905,509649.0096627485,509776.1463852103,TASK2
2026-05-10T12:33:53.995+00:00,1270,96855,188535.8468932923,59336.84072933683,509048.9323793569,509102.0401241827,509896.17525293527,220123.55567497676,509642.9076365122,509770.044358974,TASK2
2026-05-10T12:33:53.995+00:00,1270,96856,188535.6457275922,59352.93398534465,509050.8099258911,509103.6494497835,509900.4667878707,220120.1358580751,509646.93095051416,509774.3358939094,TASK2
2026-05-10T12:33:53.995+00:00,1270,96857,188533.03057349095,59349.51416844299,509134.4948571318,509187.87082289107,509990.85724244796,220109.20585503647,509737.5896260249,509864.72634848667,TASK2
2026-05-10T12:33:53.995+00:00,1270,96858,188526.39210538773,59277.16157164116,509213.62003250356,509266.7277773294,510062.4722316828,220092.91143332855,509809.2046152597,509936.073116788,TASK2
2026-05-10T12:33:53.995+00:00,1270,96859,188511.17056741365,59222.7797773814,509189.27898279176,509242.3867276176,510036.79007730365,220070.17970921748,509783.5224608806,509910.39096240886,TASK2
2026-05-10T12:33:53.995+00:00,1270,96860,188494.07148290533,59194.14719273415,509168.96124708187,509221.80077097425,510016.2041206603,220049.59375257415,509763.2047251707,509890.34144763247,TASK2
2026-05-10T12:33:53.995+00:00,1270,96861,188483.40970080017,59178.65743382662,509150.7892788397,509203.89702366554,509998.0321524181,220026.32558659618,509745.03275692853,509872.7059212572,TASK2
2026-05-10T12:33:53.995+00:00,1270,96862,188476.23479083,59186.167619963606,509133.42197339796,509186.5297182238,509980.66484697635,220002.52097875127,509727.6654514867,509855.070394882,TASK2
2026-05-10T12:33:53.995+00:00,1270,96863,188470.1327645937,59174.43295412457,509142.8097060692,509195.917450895,509990.85724244796,219981.93502210794,509737.32140509144,509864.1899066197,TASK2
2026-05-10T12:33:53.995+00:00,1270,96864,188460.54386622238,59175.50583785842,509135.63479609904,509188.47431999136,509983.4141115444,219961.08084453116,509730.41471605474,509857.0149966496,TASK2
2026-05-10T12:33:53.995+00:00,1270,96865,188451.22318878453,59186.7711170639,509126.8505605281,509179.69008442044,509974.0934341065,219943.71353908937,509721.09403861687,509847.9625401452,TASK2
2026-05-10T12:33:53.995+00:00,1270,96866,188444.04827881436,59202.05971027133,509115.3841156225,509168.4918604483,509962.8952101344,219932.2470941838,509709.6275937113,509836.7643161731,TASK2
2026-05-10T12:33:53.995+00:00,1270,96867,188439.55557817884,59218.95762907954,509103.91767071694,509157.02541554277,509951.16054429533,219929.90016101598,509697.89292787225,509825.29787126754,TASK2
2026-05-10T12:33:53.995+00:00,1270,96868,188436.40398221064,59207.759405107434,509113.8418452551,509166.9495900809,509961.0847188335,219941.97010302186,509708.08532334387,509835.22204580565,TASK2
2026-05-10T12:33:53.995+00:00,1270,96869,188432.1795025086,59197.902285802644,509104.2529468838,509157.36069170956,509951.4958204622,219958.06335902968,509698.76464590605,509825.90136836783,TASK2
2026-05-10T12:33:53.995+00:00,1270,96870,188427.15036000614,59205.14425100616,509095.46871131286,509148.57645613863,509942.71158489125,219970.66974290248,509689.98041033506,509817.11713279685,TASK2
2026-05-10T12:33:53.995+00:00,1270,96871,188423.59643263774,59216.2754197449,509094.06055141217,509147.1012410046,509941.70575639076,219981.33152500764,509687.6334771673,509815.17253102927,TASK2
2026-05-10T12:33:53.995+00:00,1270,96872,188422.3223832038,59224.053826815354,509090.10429264355,509143.4132031695,509938.01771855564,219991.79214141273,509683.94543933216,509811.48449319415,TASK2
2026-05-10T12:33:53.995+00:00,1270,96873,188418.90256630213,59225.39493148267,509098.9555834479,509152.53271490725,509946.8690093599,219999.03410661625,509692.79673013644,509820.067563065,TASK2
2026-05-10T12:33:53.995+00:00,1270,96874,188413.60520286622,59228.34536175077,509093.121778145,509146.43068867095,509941.30342499056,220007.08073462016,509687.2311457671,509814.5019786956,TASK2
2026-05-10T12:33:53.995+00:00,1270,96875,188411.5264906319,59231.027571085404,509086.48331004183,509140.32866243465,509934.9331778208,220017.0049091583,509680.59267766384,509808.3999524593,TASK2
2026-05-10T12:33:53.995+00:00,1270,96876,188411.05710399832,59241.75640842396,509077.16263260395,509130.7397640633,509925.3442794495,220027.73374649687,509670.73555835907,509798.811054088,TASK2
2026-05-10T12:33:53.995+00:00,1270,96877,188411.8617667987,59260.80009469987,509069.45128076687,509122.7601912928,509917.3647066789,220047.85031650664,509662.75598558853,509791.0997022509,TASK2
2026-05-10T12:33:53.995+00:00,1270,96878,188413.20287146603,59248.797207927375,509082.59410650656,509136.17123796593,509930.50753241865,220072.79486331876,509676.1670322617,509804.2425279906,TASK2
2026-05-10T12:33:53.995+00:00,1270,96879,188409.5148336309,59233.843890886776,509079.17428960494,509133.01964199776,509927.6241573839,220098.81229386473,509673.28365722694,509800.8227110889,TASK2
2026-05-10T12:33:53.995+00:00,1270,96880,188402.87636552769,59240.01297235644,509072.26760056824,509126.3811738945,509920.9856892807,220121.87929414262,509666.64518912375,509794.18424298574,TASK2
2026-05-10T12:33:54.000+00:00,1270,96881,188399.18832769257,59260.66598423314,509059.46005099535,509113.5736243216,509908.1781397078,220139.31365481776,509653.83763955085,509781.6449143463,TASK2
2026-05-10T12:33:54.000+00:00,1270,96882,188401.60231609375,59284.00120544448,509050.4075944909,509104.2529468838,509898.85746226995,220155.40691082558,509644.7851830465,509772.5924578419,TASK2
2026-05-10T12:33:54.000+00:00,1270,96883,188405.3574091622,59278.16740014165,509061.9410946299,509116.32288888964,509910.39096240886,220173.6459343011,509656.3186831854,509784.1259579808,TASK2
2026-05-10T12:33:54.000+00:00,1270,96884,188406.1620719626,59273.67469950613,509057.44839399436,509111.2937463872,509905.3618199064,220194.83538804474,509651.289540683,509779.0968154784,TASK2
2026-05-10T12:33:54.000+00:00,1270,96885,188406.966734763,59272.13242913871,509051.6145886915,509105.1917201509,509900.0644564705,220217.9023883226,509645.72395631357,509773.531231109,TASK2
2026-05-10T12:33:54.000+00:00,1270,96886,188406.22912719598,59279.910836209165,509048.7312136568,509102.8447869831,509900.0644564705,220238.55540019932,509645.52279061347,509773.531231109,TASK2
2026-05-10T12:33:54.000+00:00,1270,96887,188400.93176376008,59267.10328663627,509139.92633103445,509194.0399043607,509999.0379809186,220256.79442367484,509744.764535995,509872.5047555571,TASK2
2026-05-10T12:33:54.000+00:00,1270,96888,188387.85599325373,59184.29007342936,509236.75408801483,509290.59944040765,510087.55088896165,220265.64571447915,509832.7410021711,509960.74944266665,TASK2
2026-05-10T12:33:54.000+00:00,1270,96889,188365.6607110096,59121.59343023223,509208.92616616795,509263.03973949427,510057.5771996471,220265.91393541262,509803.03553379,509931.0439742856,TASK2
2026-05-10T12:33:54.000+00:00,1270,96890,188346.1476381001,59089.205752516486,509184.0486745892,509238.1622479155,510032.6997080683,220266.71859821302,509778.15804221126,509906.1664827068,TASK2
2026-05-10T12:33:54.000+00:00,1270,96891,188327.43922799104,59080.689737879016,509162.389834212,509216.23518660484,510010.77264675766,220273.4241215496,509756.4992018341,509884.5076423296,TASK2
2026-05-10T12:33:54.000+00:00,1270,96892,188311.68124815004,59076.197037243495,509150.1187265061,509203.69585796545,509998.5015390517,220284.95762168855,509743.95987319463,509871.9683136902,TASK2
2026-05-10T12:33:54.000+00:00,1270,96893,188299.41014044406,59043.54113859428,509154.67848237493,509208.2556138343,510002.7930739871,220301.05087769637,509748.25140813005,509876.25984862563,TASK2
2026-05-10T12:33:54.000+00:00,1270,96894,188285.26148620388,59030.46536808793,509142.94381653593,509196.78916892875,509990.7901872146,220318.75345930495,509736.51674229105,509864.2569618531,TASK2
2026-05-10T12:33:54.000+00:00,1270,96895,188269.77172729635,59040.657763559546,509132.81847629766,509186.1273868236,509980.66484697635,220335.11493624625,509726.1231811193,509853.8634006814,TASK2
2026-05-10T12:33:54.000+00:00,1270,96896,188258.84172425768,59052.99592649889,509120.2791476582,509173.3198372507,509968.12551833695,220350.40352945367,509713.047410613,509841.0558511085,TASK2
2026-05-10T12:33:54.000+00:00,1270,96897,188250.05748868675,59073.112496508664,509112.8360167546,509165.87670634704,509960.41416649986,220367.03322732841,509705.8725006428,509833.61272020487,TASK2
2026-05-10T12:33:54.000+00:00,1270,96898,188242.41319208304,59073.98421454242,509121.41908662545,509174.3256657512,509969.3325125375,220387.82034967185,509715.19317808066,509842.32990054245,TASK2
2026-05-10T12:33:54.000+00:00,1270,96899,188235.77472397982,59071.100839507686,509114.7806185222,509167.9554185814,509962.6940444343,220405.25471034698,509708.8229309109,509835.69143243926,TASK2
2026-05-10T12:33:54.000+00:00,1270,96900,188229.940918677,59078.3428047112,509109.21503415285,509162.389834212,509957.3966809984,220425.9077222237,509703.25734654156,509829.8576271364,TASK2
2026-05-10T12:33:54.000+00:00,1270,96901,188224.10711337414,59092.29029325132,509102.30834511615,509155.4831451753,509952.3675384959,220446.5607341004,509697.95998310565,509825.09670556744,TASK2
2026-05-10T12:33:54.000+00:00,1270,96902,188218.54152900478,59089.406918216584,509171.5093459498,509224.4159250755,510028.5422835996,220462.9222110417,509773.86650727584,509901.807892538,TASK2
2026-05-10T12:33:54.000+00:00,1270,96903,188208.68440969998,59015.17677488049,509258.14470745856,509311.0512865843,510108.2039008383,220476.06503678142,509853.796345448,509981.7377307102,TASK2
2026-05-10T12:33:54.000+00:00,1270,96904,188187.83023212317,58972.59670169314,509231.657890279,509284.8326903382,510079.83953712456,220485.45276945265,509825.70020266774,509953.3733669964,TASK2
2026-05-10T12:33:54.000+00:00,1270,96905,188165.63494987905,58950.66964038248,509212.413038303,509265.5878383622,510060.0582432816,220498.8638161258,509805.6506878913,509933.32385222,TASK2
2026-05-10T12:33:54.000+00:00,1270,96906,188147.4629816369,58937.0574280092,509196.9232793955,509249.8298585212,510044.83670530753,220509.3244325309,509790.4291499172,509917.8340933125,TASK2
2026-05-10T12:33:54.000+00:00,1270,96907,188135.19187393095,58942.42184667847,509181.7017414214,509234.34009961365,510029.61516733345,220512.54308373248,509775.2076119432,509902.88077627186,TASK2
2026-05-10T12:33:54.000+00:00,1270,96908,188125.33475462615,58938.46558790989,509186.79793915723,509239.43629734946,510034.4431441358,220510.19615056468,509780.0355887455,509907.9769740077,TASK2
2026-05-10T12:33:54.000+00:00,1270,96909,188111.99076318633,58948.657983381505,509178.0137035863,509230.6520617785,510025.39068763144,220502.2165777941,509771.25135317456,509899.19273843674,TASK2
2026-05-10T12:33:54.000+00:00,1270,96910,188102.67008574845,58958.04571605273,509169.2294680154,509221.8678262076,510016.60645206046,220496.38277249128,509762.7353385371,509890.14028193237,TASK2
2026-05-10T12:33:54.000+00:00,1270,96911,188097.64094324602,58976.0165185948,509157.22658124287,509209.8649394351,510004.603565288,220495.3769439908,509750.46423083113,509877.6009532929,TASK2
2026-05-10T12:33:54.000+00:00,1270,96912,188095.02578914474,58998.01063513882,509146.56479913765,509199.20315732993,509993.9417831828,220500.74136266008,509739.266006859,509866.6709502543,TASK2
2026-05-10T12:33:54.000+00:00,1270,96913,188094.5564025112,58998.54707700575,509154.87964807503,509207.5180062673,510002.2566321202,220509.05621159743,509747.5808557964,509875.25402012514,TASK2
2026-05-10T12:33:54.000+00:00,1270,96914,188093.28235307723,59011.421681812004,509147.16829623794,509199.8066544302,509994.27705934964,220509.86087439783,509740.1377248928,509867.8108892215,TASK2
2026-05-10T12:33:54.000+00:00,1270,96915,188096.5010042788,59021.61407728362,509143.2120374694,509195.8503956616,509990.320800581,220510.66553719822,509735.91324519075,509863.5864095194,TASK2
2026-05-10T12:33:54.000+00:00,1270,96916,188100.2560973473,59032.8793564891,509134.6960228319,509187.3343810241,509981.8047859436,220516.8346186679,509727.39723055327,509855.070394882,TASK2
2026-05-10T12:33:54.000+00:00,1270,96917,188106.42517881695,59055.67813583353,509128.0575547287,509180.9641338544,509975.4345387738,220522.7354792041,509721.0269833835,509848.7001477122,TASK2
2026-05-10T12:33:54.000+00:00,1270,96918,188112.86248122007,59056.482798633915,509138.51817113376,509191.156529326,509985.8951551789,220528.90456067375,509731.21937885514,509858.8925431838,TASK2
2026-05-10T12:33:54.000+00:00,1270,96919,188116.08113242165,59065.33408943822,509131.0750402301,509183.98161935585,509978.72024520877,220536.68296774421,509724.044468885,509851.7176332137,TASK2
2026-05-10T12:33:54.000+00:00,1270,96920,188120.37266735706,59077.404031444086,509123.90013026,509176.5384884522,509971.0088933717,220546.33892134888,509716.60133798135,509844.54272324353,TASK2
2026-05-10T12:33:54.000+00:00,1270,96921,188125.2006441594,59094.301950252295,509113.50656908826,509165.87670634704,509960.34711126646,220555.1902121532,509705.9395558762,509834.1491620718,TASK2
2026-05-10T12:33:54.000+00:00,1270,96922,188133.2472721633,59103.68968292353,509109.2820893862,509161.652226645,509955.85441063094,220564.8461657579,509701.7150761741,509829.6564614363,TASK2
2026-05-10T12:33:54.000+00:00,1270,96923,188141.02567923378,59090.07747055024,509119.20626392437,509171.57640118315,509965.51036423567,220576.91610776374,509711.3710297788,509839.312415041,TASK2
2026-05-10T12:33:54.000+00:00,1270,96924,188143.43966763496,59106.43894749153,509110.6902492869,509163.32860747917,509957.53079146513,220579.86653803184,509702.85501514137,509831.064621337,TASK2
2026-05-10T12:33:54.000+00:00,1270,96925,188146.39009790303,59137.82079670678,509103.51533931674,509156.15369750897,509950.62410242844,220579.3971513983,509696.2165470381,509823.88971136685,TASK2
2026-05-10T12:33:54.000+00:00,1270,96926,188151.2180747054,59166.25221565393,509094.99932467926,509147.905903805,509942.10808779096,220575.17267169623,509687.70053240063,509815.37369672937,TASK2
2026-05-10T12:33:54.361+00:00,1271,96927,188156.3142724412,59193.074309000294,509094.26171711227,509147.16829623794,509941.3704802239,220569.87530826032,509686.69470390014,509814.6360891623,TASK2
2026-05-10T12:33:54.361+00:00,1271,96928,188165.70200511243,59189.654492098634,509106.59988005157,509159.23823824385,509953.70864316326,220563.2368401571,509699.0328668395,509826.9742521017,TASK2
2026-05-10T12:33:54.361+00:00,1271,96929,188177.70489188493,59194.616579367714,509102.10717941605,509154.8125928417,509949.41710822785,220559.21352615516,509695.27777377097,509822.48155146616,TASK2
2026-05-10T12:33:54.361+00:00,1271,96930,188185.75151988884,59212.05094004285,509093.3229438451,509146.2965782042,509940.90109359036,220557.40303485427,509686.76175913354,509813.69731589523,TASK2
2026-05-10T12:33:54.361+00:00,1271,96931,188191.65238042505,59239.67769618961,509090.4395688104,509143.9496450364,509940.4317069568,220556.1289854203,509686.56059343345,509813.49615019513,TASK2
2026-05-10T12:33:54.361+00:00,1271,96932,188194.8710316266,59221.23750701398,509189.9495351254,509243.4596113514,510049.32940594305,220552.70916851866,509794.9218505527,509922.1256282479,TASK2
2026-05-10T12:33:54.361+00:00,1271,96933,188191.7194356584,59119.91704939808,509313.0629435853,509366.57301981124,510164.396186399,220539.90161894576,509909.7204100752,510036.92418777035,TASK2
2026-05-10T12:33:54.361+00:00,1271,96934,188172.74280461585,59054.00175499938,509289.79477760725,509343.03663289984,510137.3729273525,220514.4876855001,509882.96537196223,510010.16914965736,TASK2
2026-05-10T12:33:54.361+00:00,1271,96935,188150.8157433052,59029.39248435407,509259.8210882927,509313.0629435853,510107.6674589714,220485.3186589859,509853.2599035811,509980.46368127625,TASK2
2026-05-10T12:33:54.361+00:00,1271,96936,188133.4484378634,59019.267144115816,509231.1885036455,509284.69857987144,510079.5713161911,220453.73564407055,509824.62731893384,509952.0993175625,TASK2
2026-05-10T12:33:54.367+00:00,1271,96937,188122.78665575825,59028.65487678705,509218.649175006,509272.4274721655,510067.03198755166,220420.0068616875,509812.08799029444,509939.559988923,TASK2
2026-05-10T12:33:54.367+00:00,1271,96938,188115.34352485463,59017.45665281494,509226.159361143,509279.66943736904,510074.2739527552,220388.9602886391,509819.8663973649,509947.07017506,TASK2
2026-05-10T12:33:54.367+00:00,1271,96939,188108.7050567514,58999.552905506236,509215.22935810435,509268.7394343304,510063.34394971654,220360.5959249253,509808.9363943262,509935.8719510879,TASK2
2026-05-10T12:33:54.367+00:00,1271,96940,188103.4076933155,59006.258428842826,509204.03113413224,509257.54121035826,510051.6092838775,220333.57266587883,509797.2017284872,509924.40550618235,TASK2
2026-05-10T12:33:54.367+00:00,1271,96941,188099.4514345469,59037.372057124616,509188.8095961582,509242.05145145074,510036.38774590346,220305.74474403198,509781.7119695797,509909.18396820826,TASK2
2026-05-10T12:33:54.367+00:00,1271,96942,188098.17738511294,59065.26703420485,509177.6113721861,509230.5850065452,510025.72596379824,220286.23167112248,509770.781966541,509898.25396516966,TASK2
2026-05-10T12:33:54.367+00:00,1271,96943,188100.8595944476,59061.310775436265,509189.4130932585,509242.65494855103,510037.52768487064,220273.15590061614,509782.5836876134,509910.05568624206,TASK2
2026-05-10T12:33:54.367+00:00,1271,96944,188102.46892004836,59064.79764757129,509180.3606367541,509233.8707129801,510028.7434492997,220262.49411851095,509774.3358939094,509901.5396716046,TASK2
2026-05-10T12:33:54.367+00:00,1271,96945,188103.27358284875,59079.28157797833,509172.38106398354,509225.89114020957,510020.7638765292,220257.46497600852,509766.0881002054,509893.29187790054,TASK2
2026-05-10T12:33:54.367+00:00,1271,96946,188102.53597528173,59105.29900852431,509162.5239446788,509215.7657999713,510010.37031535746,220254.84982190724,509755.42631810025,509882.8983167288,TASK2
2026-05-10T12:33:54.367+00:00,1271,96947,188104.9499636829,59127.82956693525,509154.54437190824,509208.0544481342,510002.9271844538,220256.99558937494,509747.9831871966,509875.45518582524,TASK2
2026-05-10T12:33:54.367+00:00,1271,96948,188110.85082421912,59129.17067160257,509166.07787204714,509219.0515064062,510013.9242427258,220260.75068244344,509759.24846640206,509886.7204650307,TASK2
2026-05-10T12:33:54.367+00:00,1271,96949,188114.87413822106,59129.43889253604,509159.17118301045,509211.8765964361,510007.01755368913,220256.79442367484,509752.0735564319,509879.813775994,TASK2
2026-05-10T12:33:54.367+00:00,1271,96950,188120.64088829054,59141.37472407517,509155.416089942,509208.32266906765,510003.46362632076,220243.9198188686,509749.05607093044,509876.46101432573,TASK2
2026-05-10T12:33:54.367+00:00,1271,96951,188124.39598135903,59167.12393368768,509143.14498223603,509196.58800322865,509991.1925186148,220227.89361809415,509737.05318415794,509863.9216856863,TASK2
2026-05-10T12:33:54.367+00:00,1271,96952,188131.1015046956,59193.67780610059,509135.97007226583,509189.144872325,509984.0176086447,220216.69539412204,509729.8782741878,509856.74677571614,TASK2
2026-05-10T12:33:54.367+00:00,1271,96953,188139.9527954999,59187.30755893083,509146.96713053784,509200.141930597,509995.0146669167,220212.73913535345,509740.60711152636,509867.74383398815,TASK2
2026-05-10T12:33:54.367+00:00,1271,96954,188145.04899323572,59191.330872932784,509138.9875577673,509192.1623578265,509986.76687321265,220211.19686498604,509732.3593178223,509859.22781935066,TASK2
2026-05-10T12:33:54.367+00:00,1271,96955,188149.6087491046,59207.424128940605,509133.42197339796,509186.59677345713,509980.3966260429,220208.84993181823,509726.79373345297,509853.3940140478,TASK2
2026-05-10T12:33:54.367+00:00,1271,96956,188154.43672590694,59231.027571085404,509122.7601912928,509175.93499135197,509970.2712858046,220202.74790558193,509716.6683932147,509843.0004528761,TASK2
2026-05-10T12:33:54.367+00:00,1271,96957,188161.14224924354,59259.72721096602,509116.6581650565,509170.1011860491,509964.1692595683,220188.59925134171,509710.5663669784,509836.8984266398,TASK2
2026-05-10T12:33:54.367+00:00,1271,96958,188171.8710865821,59264.55518776837,509128.4598861289,509181.36646525457,509975.7027597073,220172.03660870032,509722.09986711736,509848.43192677875,TASK2
2026-05-10T12:33:54.367+00:00,1271,96959,188182.06348205372,59274.47936230652,509122.62608082604,509175.26443901827,509969.86895440443,220156.27862885935,509716.534282748,509842.5981214759,TASK2
2026-05-10T12:33:54.367+00:00,1271,96960,188193.06054032574,59294.5959323163,509117.0604964567,509169.96707558236,509964.3033700351,220134.35156754867,509710.9686983786,509837.03253710654,TASK2
2026-05-10T12:33:54.367+00:00,1271,96961,188202.7164939304,59316.85826979378,509115.7864470227,509168.6930261484,509965.91269563587,220112.42450623802,509712.0415821125,509838.3736417739,TASK2
2026-05-10T12:33:54.367+00:00,1271,96962,188209.422017267,59313.17023195866,509202.9582503984,509255.86482952413,510060.0582432816,220091.0338867943,509806.18712975824,509932.7874103531,TASK2
2026-05-10T12:33:54.367+00:00,1271,96963,188208.95263063346,59242.42696075761,509281.8152048367,509334.9900048959,510131.40501158295,220062.13308121357,509877.802118993,510004.4023995879,TASK2
2026-05-10T12:33:54.367+00:00,1271,96964,188199.3637322621,59194.21424796752,509256.1330504576,509309.30785051675,510103.84531066957,220029.74540349786,509850.5106390131,509976.8426986745,TASK2
2026-05-10T12:33:54.367+00:00,1271,96965,188188.70195015694,59175.50583785842,509232.0602216792,509284.96680080495,510079.77248189115,220005.40435378603,509826.4378102347,509953.03809082956,TASK2
2026-05-10T12:33:54.367+00:00,1271,96966,188179.64949365254,59166.453381354026,509212.8153697032,509265.9901697624,510060.7958508486,219984.8183971427,509807.19295825873,509933.79323885357,TASK2
2026-05-10T12:33:54.367+00:00,1271,96967,188177.30256048474,59176.377555892184,509198.13027359603,509251.3050736552,510045.842533808,219960.7455683643,509792.2396412181,509919.10814274644,TASK2
2026-05-10T12:33:54.367+00:00,1271,96968,188177.83900235165,59171.34841338974,509206.1769016,509259.35170165915,510054.1573827454,219938.01384425326,509800.28626922204,509927.4229916838,TASK2
2026-05-10T12:33:54.367+00:00,1271,96969,188176.02851105077,59174.29884365784,509195.2468985613,509247.8852567536,510042.9591587733,219914.7456782753,509788.8198243165,509916.2247677117,TASK2
2026-05-10T12:33:54.367+00:00,1271,96970,188173.41335694952,59195.48829740147,509183.2440117888,509235.6141490476,510030.68805106735,219892.01395416426,509776.816937544,509903.95366000576,TASK2
2026-05-10T12:33:54.367+00:00,1271,96971,188169.99354004784,59218.28707674588,509174.4597762179,509226.82991347666,510021.90381549636,219868.74578818626,509768.3009229065,509894.90120350133,TASK2
2026-05-10T12:33:54.367+00:00,1271,96972,188173.21219124942,59227.138367550186,509168.0895290481,509220.4596663069,510015.8017892601,219858.0840060811,509762.1988966702,509888.799177265,TASK2
2026-05-10T12:33:54.367+00:00,1271,96973,188180.99059831986,59208.96639930802,509178.8183663867,509231.1885036455,510026.7988475321,219850.90909611093,509772.92773400876,509899.25979367015,TASK2
2026-05-10T12:33:54.367+00:00,1271,96974,188186.08679605566,59199.91394280362,509174.5938866846,509226.69580300996,510022.57436783006,219837.0286628042,509768.4350333732,509895.0353139681,TASK2
2026-05-10T12:33:54.367+00:00,1271,96975,188189.84188912416,59228.814748384335,509165.47437494685,509218.3809540726,510013.2536903922,219817.18031372788,509759.1814111687,509886.38518886385,TASK2
2026-05-10T12:33:54.367+00:00,1271,96976,188190.91477285803,59264.75635346847,509155.6172556421,509208.52383476775,510003.9330129543,219796.32613615107,509749.86073373083,509876.7962904925,TASK2
2026-05-10T12:33:54.367+00:00,1271,96977,188197.88851712807,59282.995376943996,509155.416089942,509208.32266906765,510003.7318472542,219787.00545871322,509749.65956803074,509876.5951247924,TASK2
2026-05-10T12:33:54.367+00:00,1271,96978,188206.73980793238,59264.55518776837,509169.36357848207,509222.2701576078,510017.67933579435,219784.6585255454,509763.6070565709,509890.54261333257,TASK2
2026-05-10T12:33:54.367+00:00,1271,96979,188211.83600566818,59267.77383896993,509161.1157847781,509214.02236390376,510009.16332115687,219778.0200574422,509755.35926286684,509882.56304056203,TASK2
2026-05-10T12:33:54.367+00:00,1271,96980,188214.7864359363,59278.77089724194,509154.74553760834,509207.652116734,510002.5248530536,219774.868461474,509748.72079476365,509875.9245724588,TASK2
2026-05-10T12:33:54.367+00:00,1271,96981,188217.7368662044,59295.132374183224,509143.2790927027,509196.4538927619,509991.05840814806,219772.52152830618,509737.25434985803,509864.4581275532,TASK2
2026-05-10T12:33:54.367+00:00,1271,96982,188226.5881570087,59299.692130052106,509139.85927580105,509192.49763399333,509987.6385912464,219773.59441204002,509733.5663120229,509860.7700897181,TASK2
2026-05-10T12:33:54.367+00:00,1271,96983,188234.6347850126,59291.17611541464,509148.17412473843,509200.5442619972,509995.6852192503,219778.9588307093,509742.14938189375,509869.08493865543,TASK2
2026-05-10T12:33:54.367+00:00,1271,96984,188237.85343621415,59302.70961555358,509134.56191236514,509187.2002705574,509982.3412278105,219783.78680751164,509728.80539045396,509855.74094721564,TASK2
2026-05-10T12:33:54.367+00:00,1271,96985,188243.21785488343,59312.633790091735,509131.9467582639,509184.3168955227,509979.45785277575,219788.07834244706,509725.6537944858,509852.5893512474,TASK2
2026-05-10T12:33:54.367+00:00,1271,96986,188247.24116888538,59334.62790663575,509122.3578598926,509175.26443901827,509970.4053962714,219788.34656338053,509716.3331170479,509843.2686738096,TASK2
2026-05-10T12:33:54.367+00:00,1271,96987,188254.21491315545,59362.254662782514,509115.1829499224,509167.8213081147,509963.23048630124,219786.2678511462,509709.15820707777,509836.09376383945,TASK2
2026-05-10T12:33:54.367+00:00,1271,96988,188263.06620395975,59363.32754651637,509129.13043846254,509181.5005757213,509976.9097539079,219784.99380171223,509723.10569561785,509849.7730314461,TASK2
2026-05-10T12:33:54.367+00:00,1271,96989,188269.50350636287,59357.225520280066,509123.2966331597,509175.93499135197,509970.8077276716,219784.25619414521,509716.7354484481,509843.6710052098,TASK2
2026-05-10T12:33:54.367+00:00,1271,96990,188270.5763900967,59366.07681108437,509115.8535022561,509168.76008138177,509963.6328177014,219785.59729881253,509709.29231754446,509836.22787430615,TASK2
2026-05-10T12:33:54.367+00:00,1271,96991,188272.1857156975,59389.41203229571,509105.1917201509,509158.0982992766,509954.04391933006,219785.12791217896,509699.70341917314,509826.6389759348,TASK2
2026-05-10T12:33:54.367+00:00,1271,96992,188275.940808766,59404.43240456968,509129.06338322914,509181.96996235487,509981.67067547684,219786.73723777974,509727.3301753199,509853.9975111481,TASK2
2026-05-10T12:33:54.367+00:00,1271,96993,188279.42768090102,59377.94558739014,509168.76008138177,509221.13021864055,510017.61228056095,219788.614784314,509763.5400013375,509890.2073371657,TASK2
2026-05-10T12:33:54.367+00:00,1271,96994,188278.690073334,59349.044781809425,509156.4889736758,509208.8591109346,510004.26828912116,219788.614784314,509750.1960098977,509876.8633457259,TASK2
2026-05-10T12:33:54.367+00:00,1271,96995,188278.4889076339,59336.77367410346,509145.2907497037,509197.6608869625,509993.07006514905,219793.17454018287,509738.9977859256,509865.6651217538,TASK2
2026-05-10T12:33:54.367+00:00,1271,96996,188280.0982332347,59343.47919744006,509131.1420954635,509183.5122327223,509979.1896318423,219797.4660751183,509725.11735261884,509851.7846884471,TASK2
2026-05-10T12:33:54.367+00:00,1271,96997,188284.3897681701,59348.57539517587,509120.4803133583,509173.1186715506,509968.25962880364,219807.39024965646,509714.18734958017,509840.8546854084,TASK2
2026-05-10T12:33:54.367+00:00,1271,96998,188287.60841937168,59334.426740935654,509129.8680460295,509182.77462515526,509978.1838033418,219825.89749406546,509723.8433031849,509850.5106390131,TASK2
2026-05-10T12:33:54.367+00:00,1271,96999,188286.33436993771,59331.54336590092,509118.6698220574,509171.3081802497,509966.71735843626,219843.60007567404,509712.6450792128,509839.0441941075,TASK2
2026-05-10T12:33:54.367+00:00,1271,97000,188285.86498330417,59344.68619164064,509108.81270275265,509161.4510609449,509956.592018198,219860.2297735488,509702.78795990796,509828.91885386925,TASK2
2026-05-10T12:33:54.367+00:00,1271,97001,188287.20608797148,59363.19343604964,509097.882699714,509150.52105790627,509945.6620151593,219873.37259928853,509691.3215150024,509817.98885083065,TASK2
2026-05-10T12:33:54.367+00:00,1271,97002,188295.31977120874,59382.237122325554,509092.7865019782,509145.62602587056,509940.4317069568,219885.91192792795,509686.15826203325,509813.8314263619,TASK2
2026-05-10T12:33:54.367+00:00,1271,97003,188302.02529454534,59371.84356115384,509104.32000211714,509157.15952600946,509952.2334280292,219895.56788153262,509697.95998310565,509825.09670556744,TASK2
2026-05-10T12:33:54.367+00:00,1271,97004,188306.58505041423,59375.59865422233,509095.80398747965,509148.9117323055,509943.71741339174,219903.07806766962,509689.17574753467,509816.31246999645,TASK2
2026-05-10T12:33:54.367+00:00,1271,97005,188310.07192254925,59390.88724742976,509088.36085657607,509141.73682233534,509936.2742824881,219913.27046314123,509682.0008375645,509809.1375600263,TASK2
2026-05-10T12:33:54.367+00:00,1271,97006,188312.48591095043,59410.46737557261,509084.67281874095,509137.7805635667,509934.4637911872,219921.58531207862,509680.45856719714,509807.59528965893,TASK2
2026-05-10T12:33:54.367+00:00,1271,97007,188313.82701561775,59407.31577960441,509176.67259891896,509229.5121228113,510034.51019936916,219920.8477045116,509780.5049753791,509907.6416978409,TASK2
2026-05-10T12:33:54.367+00:00,1271,97008,188306.11566378066,59327.721217599064,509277.79189083475,509330.36319379363,510127.5828632811,219908.8448177391,509873.577639291,510000.98258268624,TASK2
2026-05-10T12:33:54.367+00:00,1271,97009,188287.9436955385,59258.31905106534,509258.0105969918,509310.5818999507,510105.65580197045,219889.86818669655,509851.3823570469,509978.7873004421,TASK2
2026-05-10T12:33:54.367+00:00,1271,97010,188271.3810528971,59220.29873374686,509233.66954728,509286.2408502389,510081.58297319204,219871.15977658745,509827.041307335,509954.44625073025,TASK2
2026-05-10T12:33:54.367+00:00,1271,97011,188254.81841025574,59222.71272214803,509207.4509510339,509260.2904749263,510055.63259787945,219851.11026181103,509800.8227110889,509928.7640963511,TASK2
2026-05-10T12:33:54.367+00:00,1271,97012,188244.15662815055,59231.56401295233,509195.4480642614,509248.2875881538,510043.62971110694,219831.865409835,509789.0880452499,509917.0294305121,TASK2
2026-05-10T12:33:54.367+00:00,1271,97013,188237.7863809808,59217.95180057905,509199.4713782634,509252.5791230892,510047.92124604236,219813.9616625263,509793.37958018534,509920.7845235806,TASK2
2026-05-10T12:33:54.367+00:00,1271,97014,188230.3432500772,59208.899344074656,509193.10113109363,509246.2088759194,510041.28277793917,219798.20368268533,509786.7411120821,509914.1460554774,TASK2
2026-05-10T12:33:54.367+00:00,1271,97015,188222.6318982401,59211.045111542364,509185.1215583231,509237.9610822154,510033.3032051686,219782.98214471125,509778.76153931156,509906.1664827068,TASK2
2026-05-10T12:33:54.367+00:00,1271,97016,188219.74852320537,59220.43284421359,509169.900020349,509222.73954424134,510018.08166719455,219772.856804473,509763.5400013375,509890.94494473276,TASK2
2026-05-10T12:33:54.367+00:00,1271,97017,188217.669810971,59244.30450729186,509160.04290104425,509212.6142040031,510007.9563269563,219769.1687666379,509753.6828820327,509881.08782542794,TASK2
2026-05-10T12:33:54.367+00:00,1271,97018,188214.24999406937,59243.566899724836,509166.2119825139,509218.7832854728,510014.39362935943,219768.9676009378,509760.12018443586,509887.25690689764,TASK2
2026-05-10T12:33:54.367+00:00,1271,97019,188211.6348399681,59245.444446259076,509157.42774694297,509210.2672708353,510005.87761472195,219765.0113421692,509751.6041697984,509878.4726713267,TASK2
2026-05-10T12:33:54.367+00:00,1271,97020,188209.8243486672,59262.074144133825,509150.52105790627,509203.3605817986,509998.97092568525,219755.69066473132,509744.6974807617,509871.56598229,TASK2
2026-05-10T12:33:54.367+00:00,1271,97021,188209.35496203366,59277.36273734126,509143.3461479361,509196.4538927619,509992.332457582,219746.36998729347,509737.790791725,509864.92751418677,TASK2
2026-05-10T12:33:54.367+00:00,1271,97022,188213.11005510212,59293.45599334908,509141.8038775687,509194.643401461,509990.25374534767,219737.85397265598,509735.9803004241,509863.1170228859,TASK2
2026-05-10T12:33:54.367+00:00,1271,97023,188214.98760163639,59293.99243521601,509151.9962730403,509204.83579693263,510000.4461408193,219729.87439988545,509745.90447496227,509872.7729764906,TASK2
2026-05-10T12:33:54.367+00:00,1271,97024,188216.59692723717,59294.797098016395,509143.4802584028,509196.58800322865,509992.46656804875,219726.72280391725,509737.65668125823,509864.79340372,TASK2
2026-05-10T12:33:54.367+00:00,1271,97025,188220.35202030564,59302.57550508685,509138.9875577673,509192.3635235266,509987.97386741324,219724.10764981597,509733.4322015562,509860.3007030845,TASK2
2026-05-10T12:33:54.367+00:00,1271,97026,188223.57067150722,59325.37428443126,509129.66688032943,509182.5064042218,509978.11674810847,219719.61494918045,509723.8433031849,509850.44358377974,TASK2
2026-05-10T12:33:54.821+00:00,1272,97027,188230.81263671073,59340.12643577176,509125.9788424943,509179.08658732014,509974.96515214024,219717.8044578796,509720.69170721667,509847.2919878115,TASK2
2026-05-10T12:33:54.821+00:00,1272,97028,188237.51816004733,59332.9515258016,509138.0487845002,509191.4247502595,509986.76687321265,219714.6528619114,509732.4934282891,509859.3619298174,TASK2
2026-05-10T12:33:54.821+00:00,1272,97029,188237.51816004733,59331.141034500724,509132.7514210643,509185.8591658901,509980.9330679098,219714.18347527782,509727.19606485317,509853.796345448,TASK2
2026-05-10T12:33:54.821+00:00,1272,97030,188235.70766874644,59348.3071742424,509125.0400692272,509178.4160349865,509973.75815793965,219712.1047630435,509719.7529339496,509846.3532145444,TASK2
2026-05-10T12:33:54.821+00:00,1272,97031,188238.65809901454,59371.37417452028,509111.42785685393,509164.26738074626,509959.8777246329,219708.41672520834,509705.8725006428,509832.7410021711,TASK2
2026-05-10T12:33:54.821+00:00,1272,97032,188246.16828515154,59390.68608172966,509109.3491446196,509162.1886685119,509957.7990123986,219706.338012974,509704.06200934196,509830.93051087024,TASK2
2026-05-10T12:33:54.821+00:00,1272,97033,188254.14785792207,59390.82019219639,509125.6435663275,509178.48309021984,509973.62404747296,219700.77242860463,509719.8199891829,509846.9567116447,TASK2
2026-05-10T12:33:54.821+00:00,1272,97034,188257.6347300571,59399.6714830007,509117.3957726235,509170.5035174493,509965.64447470236,219694.1339605014,509711.5721954789,509838.7089179407,TASK2
2026-05-10T12:33:54.821+00:00,1272,97035,188260.5851603252,59406.37700633729,509113.70773478836,509166.8154796142,509961.95643686724,219693.3963529344,509707.88415764377,509834.7526591721,TASK2
2026-05-10T12:33:54.821+00:00,1272,97036,188260.85338125867,59422.20204141165,509107.60570855206,509160.7134533779,509958.0001780987,219698.76077160367,509704.19611980865,509830.79640040355,TASK2
2026-05-10T12:33:54.821+00:00,1272,97037,188260.3839946251,59399.4703173006,509208.18855860096,509261.29630342673,510068.5072026857,219708.1485042749,509814.4349234622,509941.0352040571,TASK2
2026-05-10T12:33:54.821+00:00,1272,97038,188252.67264278803,59289.03034794693,509333.71595546196,509386.8237002878,510185.9879715428,219707.9473385748,509931.6474713859,510058.5159729142,TASK2
2026-05-10T12:33:54.821+00:00,1272,97039,188229.1362558766,59222.84683261476,509304.5469289478,509357.92289470707,510153.3320728936,219694.06690526806,509898.99157273665,510025.860074265,TASK2
2026-05-10T12:33:54.821+00:00,1272,97040,188203.45410149745,59187.77694556439,509277.79189083475,509331.167856594,510126.5770347806,219678.0407044936,509872.5047555571,509999.105036152,TASK2
2026-05-10T12:33:54.821+00:00,1272,97041,188181.79526112025,59170.40964012261,509253.7190620564,509307.09502781567,510102.77242693567,219661.74628278567,509848.7001477122,509975.0322073736,TASK2
2026-05-10T12:33:54.821+00:00,1272,97042,188164.9643975454,59169.67203255559,509239.83862874965,509292.9463735755,510088.6237726955,219648.9387332128,509834.28327253857,509960.8835531334,TASK2
2026-05-10T12:33:54.821+00:00,1272,97043,188151.08396423867,59139.43012230756,509245.4712683524,509298.5790131782,510094.25641229824,219642.0320441761,509839.91591214127,509966.7844136696,TASK2
2026-05-10T12:33:54.821+00:00,1272,97044,188138.8128565327,59129.03656113584,509232.12727691256,509285.50324267184,510080.9124208584,219633.24780860517,509826.5719207015,509953.44042222976,TASK2
2026-05-10T12:33:54.821+00:00,1272,97045,188127.61463256058,59137.88785194014,509219.31972733967,509272.4274721655,510068.1048712855,219629.8279917035,509813.7643711286,509940.3646517234,TASK2
2026-05-10T12:33:54.821+00:00,1272,97046,188119.9032807235,59150.226014879474,509202.48886376485,509255.5966085907,510051.54222864413,219634.3877475724,509796.9335075537,509923.5337881486,TASK2
2026-05-10T12:33:54.821+00:00,1272,97047,188118.09278942263,59161.491294084946,509195.3139537947,509248.4216986205,510044.367318674,219642.97081744322,509789.75859758357,509916.3588781784,TASK2
2026-05-10T12:33:54.821+00:00,1272,97048,188117.89162372253,59151.90239571362,509203.89702366554,509256.73654755787,510052.6821676114,219656.3818641164,509798.6098883879,509924.6737271158,TASK2
2026-05-10T12:33:54.821+00:00,1272,97049,188113.93536495394,59151.43300908006,509197.2585555623,509250.0980794547,510046.0436995081,219668.98824798918,509791.4349784177,509918.0352590126,TASK2
2026-05-10T12:33:54.821+00:00,1272,97050,188109.71088525187,59161.35718361822,509189.5472037252,509242.3867276176,510038.33234767104,219680.52174812814,509783.7236265807,509910.3239071755,TASK2
2026-05-10T12:33:54.821+00:00,1272,97051,188106.29106835023,59183.351300162234,509173.2527820173,509226.09230590967,510022.0379259631,219694.46923666826,509767.6974258062,509894.29770640103,TASK2
2026-05-10T12:33:54.821+00:00,1272,97052,188106.82751021715,59204.80897483933,509169.83296511567,509222.40426807455,510018.61810906144,219713.51292294415,509764.2776089045,509890.87788949936,TASK2
2026-05-10T12:33:54.821+00:00,1272,97053,188110.85082421912,59193.074309000294,509182.17112805496,509234.74243101384,510030.68805106735,219734.16593482086,509776.3475509104,509902.67961057177,TASK2
2026-05-10T12:33:54.821+00:00,1272,97054,188113.53303355374,59197.36584393572,509171.77756688325,509224.8182564757,510020.29448989563,219754.5507257641,509766.15515543876,509892.75543603365,TASK2
2026-05-10T12:33:54.821+00:00,1272,97055,188113.53303355374,59201.38915793767,509165.67554064695,509218.71623023937,510014.19246365933,219775.4719585743,509760.05312920245,509886.65340979735,TASK2
2026-05-10T12:33:54.821+00:00,1272,97056,188115.41058008798,59206.217134740014,509156.35486320907,509209.12733186805,510004.603565288,219795.85674951752,509750.73245176463,509877.3327323595,TASK2
2026-05-10T12:33:54.821+00:00,1272,97057,188117.82456848916,59228.4794722175,509149.44817417243,509202.48886376485,509997.6968762513,219810.07245899108,509744.0939836614,509870.6942642562,TASK2
2026-05-10T12:33:54.821+00:00,1272,97058,188120.77499875726,59241.08585609029,509156.6901393759,509209.99904990185,510004.9388414548,219816.24154046076,509750.799506998,509877.93622945977,TASK2
2026-05-10T12:33:54.821+00:00,1272,97059,188124.79831275923,59257.44733303158,509148.17412473843,509200.67837246397,509996.1546058839,219823.2152847308,509741.74705049355,509869.15199388884,TASK2
2026-05-10T12:33:54.821+00:00,1272,97060,188128.01696396078,59271.931263438615,509142.34031943564,509194.8445671611,509990.5890215145,219838.7720988717,509736.44968705764,509863.5864095194,TASK2
2026-05-10T12:33:54.821+00:00,1272,97061,188131.23561516235,59290.97494971454,509130.33743266313,509183.37812225556,509978.586134742,219853.5242502122,509724.4468002852,509851.583522747,TASK2
2026-05-10T12:33:54.821+00:00,1272,97062,188137.67291756548,59311.359740657776,509122.8943017595,509175.93499135197,509971.4112247719,219868.27640155272,509717.271890315,509844.6768337103,TASK2
2026-05-10T12:33:54.821+00:00,1272,97063,188143.84199903512,59310.08569122382,509136.84179029963,509189.3460380251,509984.822271445,219883.8332156936,509730.6829369882,509857.81965945,TASK2
2026-05-10T12:33:54.821+00:00,1272,97064,188149.47463863788,59316.52299362695,509132.0808687306,509184.3168955227,509979.5249080091,219896.4395995664,509725.92201541923,509852.7905169475,TASK2
2026-05-10T12:33:54.821+00:00,1272,97065,188155.64372010753,59328.59293563282,509125.1741796939,509177.410206486,509972.61821897246,219909.58242530611,509719.01532638253,509846.1520488443,TASK2
2026-05-10T12:33:54.821+00:00,1272,97066,188161.54458064373,59353.26926151148,509113.4395138549,509165.9437615804,509962.22465780075,219919.2383789108,509708.3535442774,509835.49026673916,TASK2
2026-05-10T12:33:54.821+00:00,1272,97067,188170.6640923815,59362.65699418271,509136.23829319933,509188.7425409248,509987.4374255463,219931.8447627836,509733.5663120229,509860.9712554182,TASK2
2026-05-10T12:33:54.821+00:00,1272,97068,188180.58826691966,59327.31888619887,509169.76590988226,509222.2701576078,510018.01461196115,219940.15961172097,509764.14349843777,509891.54844183306,TASK2
2026-05-10T12:33:54.821+00:00,1272,97069,188184.34335998815,59314.511336625976,509155.08081377513,509207.58506150066,510002.7930739871,219949.01090252528,509749.1901813972,509876.326903859,TASK2
2026-05-10T12:33:54.821+00:00,1272,97070,188187.02556932278,59310.28685692392,509142.54148513573,509195.3139537947,509990.5219662811,219970.46857720238,509736.91907369124,509863.7875752195,TASK2
2026-05-10T12:33:54.821+00:00,1272,97071,188190.78066239128,59324.234345464036,509125.4424006274,509178.2148692864,509973.42288177286,219997.29067054874,509719.8199891829,509846.68849071127,TASK2
2026-05-10T12:33:54.821+00:00,1272,97072,188192.92642985898,59337.377171203756,509120.41325812496,509172.9175058505,509968.3937392704,220027.8678569636,509714.79084668047,509841.6593482088,TASK2
2026-05-10T12:33:54.821+00:00,1272,97073,188197.48618572787,59326.44716816511,509128.1916651954,509180.4276919875,509975.9039254074,220057.3721596446,509722.30103281746,509849.1695343458,TASK2
2026-05-10T12:33:54.821+00:00,1272,97074,188200.70483692945,59323.83201406384,509116.9934412233,509169.4976889488,509964.7057014353,220087.14468325907,509711.10280884535,509837.9713103737,TASK2
2026-05-10T12:33:54.821+00:00,1272,97075,188201.50949972984,59334.292630468924,509110.3549731201,509162.5909999121,509957.7990123986,220119.33119527472,509704.19611980865,509831.33284227044,TASK2
2026-05-10T12:33:54.821+00:00,1272,97076,188203.1188253306,59344.48502594054,509097.01098168024,509149.24700847233,509944.45502095873,220153.66347475807,509691.1203493023,509818.2570717641,TASK2
2026-05-10T12:33:54.821+00:00,1272,97077,188210.36079053412,59351.99521207753,509091.71361824434,509144.21786596987,509939.4258784563,220189.87330077565,509685.8229858664,509813.22792926163,TASK2
2026-05-10T12:33:54.821+00:00,1272,97078,188218.40741853803,59344.82030210737,509102.4424555829,509155.2149242419,509950.42293672834,220223.66913839208,509696.55182320497,509823.9567666002,TASK2
2026-05-10T12:33:54.821+00:00,1272,97079,188221.49195927288,59358.36545924729,509093.7252752453,509147.23535147135,509942.2421982577,220252.3687782727,509688.57225043443,509815.6419176628,TASK2
2026-05-10T12:33:54.821+00:00,1272,97080,188224.1741686075,59375.531598988964,509085.20926060784,509138.4511159004,509933.4579626867,220280.26375535293,509679.51979393,509806.8576820919,TASK2
2026-05-10T12:33:54.821+00:00,1272,97081,188227.929261676,59391.624854996786,509080.4483390389,509133.6901943314,509930.8428085855,220309.231616167,509676.6364188953,509804.2425279906,TASK2
2026-05-10T12:33:54.821+00:00,1272,97082,188230.8796919441,59364.06515408339,509172.7163401504,509225.9581954429,510030.3527749005,220337.39481418068,509776.4146061438,509903.75249430566,TASK2
2026-05-10T12:33:54.821+00:00,1272,97083,188223.9730029074,59271.864208205254,509263.64323659457,509317.1533128206,510114.30592707463,220355.36561672276,509860.3677583179,509987.4374255463,TASK2
2026-05-10T12:33:54.821+00:00,1272,97084,188202.58238346368,59226.33370474979,509233.13310541306,509286.6431816391,510082.18647029233,220367.16733779517,509827.98008060217,509955.04974783055,TASK2
2026-05-10T12:33:54.821+00:00,1272,97085,188183.33753148766,59202.26087597143,509210.40138130204,509263.3750156611,510058.9183043144,220384.6016984703,509804.98013555765,509932.31802371953,TASK2
2026-05-10T12:33:54.821+00:00,1272,97086,188169.99354004784,59187.30755893083,509190.3518665256,509243.05727995123,510038.868789538,220400.42673354465,509784.9306207812,509912.00028800964,TASK2
2026-05-10T12:33:54.821+00:00,1272,97087,188160.94108354344,59171.8178000233,509179.9583053539,509232.93193971296,510028.7434492997,220418.93397795365,509774.5370596095,509901.3385059045,TASK2
2026-05-10T12:33:54.821+00:00,1272,97088,188151.08396423867,59163.83822725275,509181.2994100212,509234.54126531375,510030.08455396706,220434.49079209453,509775.87816427683,509902.67961057177,TASK2
2026-05-10T12:33:54.821+00:00,1272,97089,188138.8128565327,59172.68951805706,509170.63762791606,509223.8794832086,510019.1545509284,220446.5607341004,509765.21638217167,509892.28604940005,TASK2
2026-05-10T12:33:54.821+00:00,1272,97090,188129.49217909484,59181.540808861355,509163.46271794586,509216.43635230494,510011.97964095825,220460.77644357397,509758.309693135,509885.1111394299,TASK2
2026-05-10T12:33:54.821+00:00,1272,97091,188122.8537109916,59189.85565779873,509151.9962730403,509205.2381283328,510000.78141698614,220474.99215304755,509747.11146916286,509873.64469452435,TASK2
2026-05-10T12:33:54.821+00:00,1272,97092,188119.97033595687,59205.41247193963,509147.77179333824,509200.7454276973,509996.2887163506,220485.45276945265,509742.61876852735,509869.4202148223,TASK2
2026-05-10T12:33:54.821+00:00,1272,97093,188118.42806558945,59203.33375970528,509157.42774694297,509210.13316036854,510005.67644902185,220496.7180486581,509752.0065011986,509879.07616842695,TASK2
2026-05-10T12:33:54.821+00:00,1272,97094,188109.1073881516,59211.38038770919,509148.64351137204,509201.6171457311,509997.16043438436,220512.81130466593,509743.4904865611,509870.5601537895,TASK2
2026-05-10T12:33:54.821+00:00,1272,97095,188101.39603631452,59221.57278318081,509142.54148513573,509195.5151194948,509990.7901872146,220531.31854907493,509737.3884603248,509864.1899066197,TASK2
2026-05-10T12:33:54.821+00:00,1272,97096,188099.58554501363,59237.129597321706,509129.73393556284,509182.7075699219,509977.7144167083,220545.26603761505,509724.31268981844,509850.84591517993,TASK2
2026-05-10T12:33:54.821+00:00,1272,97097,188100.12198688055,59254.29573706338,509127.6552233285,509180.6288576876,509975.6357044739,220557.60420055437,509722.50219851756,509849.03542387905,TASK2
2026-05-10T12:33:54.821+00:00,1272,97098,188099.92082118045,59252.4852457625,509139.9933862678,509192.9670206269,509987.7056464798,220573.16101469527,509734.30391958996,509861.3735868184,TASK2
2026-05-10T12:33:54.821+00:00,1272,97099,188097.3056670792,59259.45899003256,509132.81847629766,509185.79211065674,509980.5307365096,220593.81402657196,509727.1290096198,509854.1986768482,TASK2
2026-05-10T12:33:54.821+00:00,1272,97100,188098.1103298796,59259.45899003256,509126.4482291279,509179.1536425535,509973.8922684064,220617.68568965024,509720.49054151657,509847.82842967845,TASK2
2026-05-10T12:33:54.821+00:00,1272,97101,188099.98787641383,59280.64844377619,509111.22669115383,509163.66388364596,509958.4025094989,220636.72937592617,509705.2690035425,509832.0704498375,TASK2
2026-05-10T12:33:54.821+00:00,1272,97102,188104.54763228272,59307.20231618909,509108.0750951856,509160.5122876778,509955.25091353065,220654.70017846822,509702.38562850776,509828.91885386925,TASK2
2026-05-10T12:33:54.821+00:00,1272,97103,188108.57094628466,59299.49096435201,509119.60859532456,509172.3140087502,509967.05263460305,220674.01208567762,509713.9191286467,509840.4523540082,TASK2
2026-05-10T12:33:54.821+00:00,1272,97104,188107.83333871764,59303.2460574205,509111.8972434875,509164.33443597966,509959.34128276596,220689.03245795157,509706.20777680964,509832.7410021711,TASK2
2026-05-10T12:33:54.821+00:00,1272,97105,188107.36395208407,59316.92532502715,509105.7952172512,509157.96418880986,509953.23925652966,220704.85749302592,509700.10575057333,509826.6389759348,TASK2
2026-05-10T12:33:54.821+00:00,1272,97106,188111.32021085266,59333.08563626834,509096.3404293466,509149.24700847233,509944.72324189224,220719.40847866633,509690.7180179021,509818.12296129734,TASK2
2026-05-10T12:33:54.821+00:00,1272,97107,188120.43972259044,59347.301345741915,509093.4570543119,509146.63185437105,509941.8398668575,220728.5279904041,509687.8346428674,509815.5078071961,TASK2
2026-05-10T12:33:54.821+00:00,1272,97108,188127.14524592704,59355.347973745826,509099.0896939146,509152.26449397375,509947.20428552676,220738.18394400878,509693.19906153664,509821.40866773226,TASK2
2026-05-10T12:33:54.821+00:00,1272,97109,188129.5592343282,59369.02724135247,509090.0372374102,509143.2120374694,509938.15182902233,220752.39965348237,509684.14660503226,509811.81976936094,TASK2
2026-05-10T12:33:54.821+00:00,1272,97110,188134.11899019708,59382.17006709219,509086.885641442,509139.7922205677,509935.00023305416,220766.8835838894,509680.99500906403,509808.66817339277,TASK2
2026-05-10T12:33:54.821+00:00,1272,97111,188142.165618201,59404.43240456968,509081.3200570726,509133.9584152649,509931.5804161525,220774.3937700264,509677.3069712289,509805.2483564911,TASK2
2026-05-10T12:33:54.821+00:00,1272,97112,188143.23850193486,59393.77062246449,509182.97579085536,509235.34592811414,510041.81921980606,220778.1488630949,509787.5457748825,509915.2189392112,TASK2
2026-05-10T12:33:54.821+00:00,1272,97113,188131.5038360958,59309.88452552373,509288.65483864007,509341.2931968323,510139.9880814538,220777.67947646132,509885.44641559676,510013.11957992543,TASK2
2026-05-10T12:33:54.821+00:00,1272,97114,188112.25898411978,59242.62812645771,509258.14470745856,509311.0512865843,510106.79574093764,220777.9476973948,509851.9858541472,509980.46368127625,TASK2
2026-05-10T12:33:54.821+00:00,1272,97115,188093.5505740107,59208.36290220772,509233.53543681325,509286.17379500554,510081.65002842544,220783.31211606404,509827.3765835019,509955.5861896975,TASK2
2026-05-10T12:33:54.821+00:00,1272,97116,188077.25615230278,59195.01891076791,509207.8532824341,509260.75986155984,510056.23609497974,220788.67653473333,509801.9626500562,509930.1722562518,TASK2
2026-05-10T12:33:54.821+00:00,1272,97117,188064.44860272988,59185.43001239658,509195.0457328612,509247.95231198694,510043.42854540684,220799.67359300534,509789.1551004833,509917.09648574545,TASK2
2026-05-10T12:33:54.821+00:00,1272,97118,188050.83639035662,59165.9169394871,509195.0457328612,509247.4829253534,510043.42854540684,220818.98550021474,509788.9539347832,509917.3647066789,TASK2
2026-05-10T12:33:54.821+00:00,1272,97119,188034.27374771523,59166.98982322095,509180.6288576876,509233.0660501797,510029.01167023316,220840.71139582535,509774.5370596095,509902.94783150527,TASK2
2026-05-10T12:33:54.821+00:00,1272,97120,188022.00264000928,59162.7653435189,509170.77173838275,509223.4771518084,510019.1545509284,220867.26526823823,509764.6799403047,509893.09071220044,TASK2
2026-05-10T12:33:54.821+00:00,1272,97121,188015.36417190603,59165.17933192007,509157.96418880986,509210.40138130204,510006.07878042205,220890.86871038305,509751.6041697984,509880.28316262754,TASK2
2026-05-10T12:33:54.821+00:00,1272,97122,188011.6761340709,59178.32215765979,509156.6901393759,509209.12733186805,510004.8047309881,220912.05816412668,509750.33012036444,509879.0091131936,TASK2
2026-05-10T12:33:54.821+00:00,1272,97123,188008.25631716926,59166.319270887296,509165.8096511137,509217.9786226724,510014.19246365933,220935.39338533801,509759.44963210216,509887.86040399794,TASK2
2026-05-10T12:33:54.821+00:00,1272,97124,188004.30005840067,59170.074363955784,509153.0021015408,509204.90285216604,510001.11669315293,220956.58283908165,509746.6420825293,509875.3210753585,TASK2
2026-05-10T12:33:54.821+00:00,1272,97125,188002.2213461663,59191.263817699415,509144.4860869033,509196.9232793955,509992.86889944895,220970.79854855523,509738.12606789183,509866.53683978756,TASK2
2026-05-10T12:33:54.821+00:00,1272,97126,188003.29422990017,59217.281248245396,509130.0692117296,509182.77462515526,509978.45202427526,220980.4545021599,509723.70919271815,509852.11996461387,TASK2
2026-05-10T12:33:55.206+00:00,1273,97127,188007.85398576906,59229.61941118472,509134.36074666504,509187.3343810241,509982.7435592107,220994.6702116335,509728.268948587,509856.6797204828,TASK2
2026-05-10T12:33:55.206+00:00,1273,97128,188011.60907883753,59219.49407094647,509143.4802584028,509196.4538927619,509991.86307094846,221013.71389790942,509737.12023939134,509865.7992322205,TASK2
2026-05-10T12:33:55.207+00:00,1273,97129,188013.21840443832,59227.80891988384,509133.8913600315,509186.8649943906,509982.5423935106,221022.29696778025,509727.2631200865,509855.94211291574,TASK2
2026-05-10T12:33:55.207+00:00,1273,97130,188016.4370556399,59248.73015269401,509129.398659396,509182.37229375506,509978.04969287507,221017.2678252778,509722.50219851756,509851.4494122802,TASK2
2026-05-10T12:33:55.207+00:00,1273,97131,188020.99681150878,59283.86709497775,509118.2004354239,509171.4422907164,509966.85146890295,221001.5098454368,509711.8404164124,509840.51940924156,TASK2
2026-05-10T12:33:55.207+00:00,1273,97132,188030.92098604693,59311.225630191046,509116.6581650565,509169.900020349,509965.577419469,220985.2154237289,509710.29814604495,509838.7089179407,TASK2
2026-05-10T12:33:55.207+00:00,1273,97133,188041.11338151855,59315.51716512647,509126.5823395946,509180.09241582063,509975.5015940072,220967.57989735366,509720.2223205831,509848.63309247885,TASK2
2026-05-10T12:33:55.207+00:00,1273,97134,188049.42823045593,59333.21974673507,509118.3345458906,509172.1128430501,509967.52202123665,220949.13970817803,509712.2427478126,509840.6535197083,TASK2
2026-05-10T12:33:55.207+00:00,1273,97135,188058.54774219368,59352.263433010994,509115.1829499224,509168.6930261484,509964.102204335,220939.81903074018,509709.09115184436,509837.23370280664,TASK2
2026-05-10T12:33:55.207+00:00,1273,97136,188069.27657953225,59361.65116568222,509105.3258306176,509158.56768591015,509953.9768640967,220940.62369354055,509699.2340325396,509827.10836256837,TASK2
2026-05-10T12:33:55.207+00:00,1273,97137,188081.41357677148,59380.9630728916,509104.72233351733,509157.83007834316,509953.10514606297,220942.165963908,509699.5693087064,509826.2366445346,TASK2
2026-05-10T12:33:55.207+00:00,1273,97138,188089.72842570883,59381.767735691996,509114.378287122,509167.2178110144,509962.22465780075,220938.47792607284,509708.95704137767,509835.62437720585,TASK2
2026-05-10T12:33:55.207+00:00,1273,97139,188095.8975071785,59385.522828760484,509106.39871435147,509159.23823824385,509954.7815268971,220933.98522543733,509700.9774686071,509827.6448044353,TASK2
2026-05-10T12:33:55.207+00:00,1273,97140,188102.87125144855,59393.569456764395,509100.0284671817,509152.86799107405,509948.14305879385,220935.8627719716,509694.3390005039,509821.27455726557,TASK2
2026-05-10T12:33:55.207+00:00,1273,97141,188107.43100731744,59417.977561709595,509089.36668507656,509142.2062089689,509938.2859394891,220940.42252784048,509684.75010213256,509811.41743796074,TASK2
2026-05-10T12:33:55.207+00:00,1273,97142,188113.33186785365,59430.31572464892,509115.11589468905,509167.4189767145,509966.9855793697,220945.5187255763,509713.7179629466,509840.11707784137,TASK2
2026-05-10T12:33:55.207+00:00,1273,97143,188119.50094932332,59398.46448880011,509155.08081377513,509207.38389580057,510004.0000681877,220946.59160931013,509750.46423083113,509877.1315666594,TASK2
2026-05-10T12:33:55.207+00:00,1273,97144,188120.03739119024,59380.82896242487,509142.54148513573,509195.1127880946,509990.65607674787,220944.24467614232,509736.85201845784,509863.7875752195,TASK2
2026-05-10T12:33:55.207+00:00,1273,97145,188116.88579522204,59378.482029257066,509131.0750402301,509183.37812225556,509978.92141090886,220944.5128970758,509725.3855735523,509852.32113031397,TASK2
2026-05-10T12:33:55.207+00:00,1273,97146,188114.27064112076,59394.30706433142,509113.70773478836,509166.0108168138,509961.2858845336,220944.5128970758,509707.7500471771,509834.68560393876,TASK2
2026-05-10T12:33:55.207+00:00,1273,97147,188116.95285045542,59404.23123886958,509110.01969695324,509162.5909999121,509957.8660676319,220950.95019947892,509704.3302302754,509831.53400797053,TASK2
2026-05-10T12:33:55.207+00:00,1273,97148,188118.83039698965,59392.76479396401,509116.4569993564,509169.0283023153,509964.5715909685,220957.92394374896,509711.30397454544,509837.9713103737,TASK2
2026-05-10T12:33:55.207+00:00,1273,97149,188119.36683885657,59393.569456764395,509105.7952172512,509158.36652021005,509953.90980886336,220960.06971121667,509700.6421924403,509827.30952826847,TASK2
2026-05-10T12:33:55.207+00:00,1273,97150,188124.19481565894,59398.397433566744,509101.0342956822,509153.87381957454,509949.41710822785,220960.06971121667,509696.4177127382,509822.81682763295,TASK2
2026-05-10T12:33:55.207+00:00,1273,97151,188126.6088040601,59426.56063158043,509086.3491995751,509139.1887234674,509934.7320121207,220956.38167338155,509681.19617476413,509807.8635105924,TASK2
2026-05-10T12:33:55.207+00:00,1273,97152,188129.82745526166,59456.3331551949,509085.3433710746,509138.4511159004,509933.99440455367,220955.1076239476,509680.19034626364,509806.8576820919,TASK2
2026-05-10T12:33:55.207+00:00,1273,97153,188133.31432739669,59451.57223362592,509097.6815340139,509150.7892788397,509946.332567493,220958.59449608263,509692.528509203,509819.19584503124,TASK2
2026-05-10T12:33:55.207+00:00,1273,97154,188134.38721113055,59452.37689642631,509090.2384031103,509143.6143688696,509938.8894365894,220962.61781008457,509685.08537829935,509812.02093506104,TASK2
2026-05-10T12:33:55.207+00:00,1273,97155,188138.9469669994,59456.40021042826,509083.06349314016,509136.43945889943,509931.71452661924,220975.22419395737,509678.1786892627,509804.57780415745,TASK2
2026-05-10T12:33:55.207+00:00,1273,97156,188142.97028100138,59469.54303616798,509070.5241645007,509123.3636883931,509918.90697704634,220994.80432210022,509665.63936062326,509791.77025458455,TASK2
2026-05-10T12:33:55.207+00:00,1273,97157,188149.4075834045,59472.493466436084,509072.1334901015,509125.2412349273,509920.5163026471,221017.8713223781,509667.24868622405,509793.6478011188,TASK2
2026-05-10T12:33:55.207+00:00,1273,97158,188155.174333474,59453.5838906269,509085.00809490774,509138.51817113376,509933.5250179201,221044.2240290909,509679.58684916334,509806.99179255863,TASK2
2026-05-10T12:33:55.207+00:00,1273,97159,188156.24721720783,59450.70051559216,509074.07809186913,509127.31994716165,509922.326793948,221071.31434337073,509668.38862519123,509795.7935685865,TASK2
2026-05-10T12:33:55.207+00:00,1273,97160,188154.70494684041,59460.08824826339,509064.2209725643,509117.4628278569,509912.4696746432,221101.8915297856,509658.263284953,509785.66822834825,TASK2
2026-05-10T12:33:55.207+00:00,1273,97161,188153.69911833992,59479.9365973397,509049.5358764572,509102.7777317497,509897.78457853606,221128.71362313197,509644.1146307128,509771.25135317456,TASK2
2026-05-10T12:33:55.207+00:00,1273,97162,188156.9177695415,59492.54298121249,509050.608760191,509103.8506154836,509898.58924133645,221154.73105367794,509645.1875144467,509772.32423690846,TASK2
2026-05-10T12:33:55.207+00:00,1273,97163,188160.67286261,59480.80831537346,509057.5825044611,509111.0925806871,509905.83120654,221178.33449582275,509652.42947965016,509779.56620211195,TASK2
2026-05-10T12:33:55.207+00:00,1273,97164,188162.28218821075,59490.464268978154,509049.0664898236,509102.5765660496,509897.04697096907,221192.8184262298,509643.9134650127,509771.31840840797,TASK2
2026-05-10T12:33:55.207+00:00,1273,97165,188164.69617661193,59502.53421098402,509051.4804782248,509104.9905544508,509899.46095937025,221200.0603914333,509646.5956743473,509773.46417587565,TASK2
2026-05-10T12:33:55.207+00:00,1273,97166,188166.5737231462,59525.33299032843,509040.0140333192,509093.79233047867,509887.99451446463,221204.88836823564,509635.12922944175,509761.72951003665,TASK2
2026-05-10T12:33:55.207+00:00,1273,97167,188173.54746741624,59533.6478392658,509038.20354201837,509091.71361824434,509886.45224409725,221215.0807637073,509633.31873814086,509759.91901873576,TASK2
2026-05-10T12:33:55.207+00:00,1273,97168,188181.32587448668,59520.035626892524,509047.3230537561,509100.8331299821,509895.571755835,221223.39561264464,509642.7064708121,509769.306751407,TASK2
2026-05-10T12:33:55.207+00:00,1273,97169,188183.20342102094,59524.59538276141,509040.6845856529,509094.46288281237,509888.9332877318,221228.223589447,509636.6044445758,509762.9365042372,TASK2
2026-05-10T12:33:55.207+00:00,1273,97170,188184.27630475478,59539.34753410191,509032.9732338158,509086.7515309753,509881.2219358947,221237.61132211823,509628.62487180525,509754.6887105332,TASK2
2026-05-10T12:33:55.207+00:00,1273,97171,188186.69029315596,59557.31833664398,509023.11611451104,509076.89441167045,509872.7059212572,221250.217705991,509619.8406362343,509745.6362540288,TASK2
2026-05-10T12:33:55.207+00:00,1273,97172,188192.05471182524,59548.8023220065,509068.4454522664,509122.4919703593,509922.0585730145,221262.0194270634,509668.9250670582,509795.2571267196,TASK2
2026-05-10T12:33:55.207+00:00,1273,97173,188189.97599959088,59513.732434956124,509108.9468132194,509162.7251103789,509958.2683990321,221267.65206666617,509705.40311400924,509831.4669527372,TASK2
2026-05-10T12:33:55.207+00:00,1273,97174,188181.99642682035,59501.46132725017,509089.16551937646,509142.94381653593,509937.6824423888,221270.06605506732,509684.8171573659,509811.1492170273,TASK2
2026-05-10T12:33:55.207+00:00,1273,97175,188176.9672843179,59492.94531261269,509083.59993500705,509137.1100112331,509931.5804161525,221273.55292720234,509678.98335206305,509805.31541172444,TASK2
2026-05-10T12:33:55.207+00:00,1273,97176,188170.8652580816,59494.82285914694,509070.5241645007,509124.03424072673,509918.50464564614,221272.01065683493,509665.9075815567,509792.2396412181,TASK2
2026-05-10T12:33:55.207+00:00,1273,97177,188171.40169994853,59487.37972824332,509068.7136731998,509122.4919703593,509917.2305962122,221272.2788777684,509664.0970902558,509790.6973708507,TASK2
2026-05-10T12:33:55.207+00:00,1273,97178,188174.88857208355,59472.158190269256,509073.27342906874,509127.31994716165,509922.0585730145,221274.96108710303,509668.9250670582,509795.525347653,TASK2
2026-05-10T12:33:55.207+00:00,1273,97179,188174.41918545,59470.34769896838,509059.9294376289,509113.9759557218,509908.7145815747,221282.7394941735,509655.84929655184,509782.4495771467,TASK2
2026-05-10T12:33:55.207+00:00,1273,97180,188175.49206918385,59464.245672732075,509054.632074193,509108.9468132194,509903.4172181388,221296.95520364706,509650.55193311593,509776.8839927773,TASK2
2026-05-10T12:33:55.207+00:00,1273,97181,188173.14513601604,59476.31561473794,509041.2880827532,509095.3346008461,509890.07322669897,221314.65778525567,509637.4761626096,509764.0764432044,TASK2
2026-05-10T12:33:55.207+00:00,1273,97182,188172.67574938247,59481.94825434068,509040.8186961196,509094.86521421256,509889.6038400654,221336.11545993277,509637.006775976,509763.3388356374,TASK2
2026-05-10T12:33:55.207+00:00,1273,97183,188174.68740638345,59465.3856116993,509051.6816439249,509104.72233351733,509899.59506983694,221363.47399514605,509646.19334294717,509772.86067877535,TASK2
2026-05-10T12:33:55.207+00:00,1273,97184,188172.87691508257,59461.16113199724,509042.6291874205,509095.9380979464,509890.810834266,221389.7596466255,509637.14088644274,509764.0764432044,TASK2
2026-05-10T12:33:55.207+00:00,1273,97185,188171.33464471516,59474.303957736964,509035.9907193173,509089.29962984315,509884.1723661628,221405.58468169984,509630.770639273,509757.4379751012,TASK2
2026-05-10T12:33:55.207+00:00,1273,97186,188171.13347901506,59498.98028361562,509032.5709024156,509085.87981294154,509882.8983167288,221406.38934450023,509629.49658983905,509756.16392566724,TASK2
2026-05-10T12:33:55.207+00:00,1273,97187,188170.39587144804,59480.540094439995,509148.7105666054,509202.28769806476,510011.10792292445,221397.87332986278,509757.7061960347,509884.37353186286,TASK2
2026-05-10T12:33:55.207+00:00,1273,97188,188157.05188000822,59360.444171481635,509334.0512316288,509387.3601421547,510191.0841692786,221371.65473361668,509937.6824423888,510064.34977821703,TASK2
2026-05-10T12:33:55.207+00:00,1273,97189,188126.0053069598,59247.321992793324,509338.61098749767,509391.9198980236,510187.3961314435,221330.9522069636,509933.99440455367,510060.6617403819,TASK2
2026-05-10T12:33:55.207+00:00,1273,97190,188089.5943152421,59182.21136119502,509298.9813445784,509352.82669697126,510147.7664885242,221292.12722684472,509894.36476163444,510021.0320974626,TASK2
2026-05-10T12:33:55.207+00:00,1273,97191,188057.7430793933,59150.091904412744,509264.44789939496,509318.2932517878,510113.50126427424,221257.05733979435,509859.83131645096,509986.4986522792,TASK2
2026-05-10T12:33:55.207+00:00,1273,97192,188030.71982034683,59125.214412833986,509250.5674660882,509304.6810394145,510099.35261003405,221226.01076674592,509845.9508831442,509972.61821897246,TASK2
2026-05-10T12:33:55.207+00:00,1273,97193,188003.96478223382,59102.7509096564,509247.14764918655,509301.26122251287,510095.6645721989,221195.23241463097,509842.53106624255,509968.9301811373,TASK2
2026-05-10T12:33:55.207+00:00,1273,97194,187980.16017438893,59102.549743956304,509229.7803437448,509283.6256961376,510078.2972667571,221167.40449278412,509824.89553986734,509951.83109662903,TASK2
2026-05-10T12:33:55.207+00:00,1273,97195,187959.30599681212,59109.79170915982,509218.31389883923,509272.15925123205,510067.099042785,221146.81853614075,509813.69731589523,509940.3646517234,TASK2
2026-05-10T12:33:55.207+00:00,1273,97196,187941.93869137036,59121.0569883653,509203.89702366554,509257.74237605836,510052.4139466779,221130.2558934994,509799.28044072154,509925.6795556163,TASK2
2026-05-10T12:33:55.207+00:00,1273,97197,187931.27690926517,59120.8558226652,509205.2381283328,509259.0834807257,510053.4868304117,221116.10723925917,509800.3533244554,509926.7524393501,TASK2
2026-05-10T12:33:55.207+00:00,1273,97198,187921.15156902693,59109.65759869309,509208.4567795344,509262.5703528607,510056.43726067984,221105.98189902093,509803.3037547235,509929.9710905517,TASK2
2026-05-10T12:33:55.207+00:00,1273,97199,187910.22156598826,59123.33686629974,509195.6492299615,509249.4945823544,510043.3614901735,221095.05189598227,509790.2279842171,509916.6270991119,TASK2
2026-05-10T12:33:55.207+00:00,1273,97200,187903.04665601812,59128.701284969015,509190.08364559215,509243.928997985,510038.0641267376,221087.87698601212,509784.9306207812,509911.329735676,TASK2
2026-05-10T12:33:55.207+00:00,1273,97201,187898.5539553826,59144.794540976836,509175.1303285516,509228.70746001095,510023.11080969695,221083.65250631006,509769.9773037406,509896.37641863537,TASK2
2026-05-10T12:33:55.207+00:00,1273,97202,187897.27990594864,59154.18227364806,509179.1536425535,509232.99899494636,510027.6705655659,221081.57379407572,509774.5370596095,509901.20439543773,TASK2
2026-05-10T12:33:55.207+00:00,1273,97203,187895.73763558123,59140.033619407855,509187.2002705574,509240.7774020168,510035.71719356976,221083.71956154343,509782.31546668,509909.25102344167,TASK2
2026-05-10T12:33:55.207+00:00,1273,97204,187890.17205121185,59144.59337527674,509176.0020465853,509229.84739897813,510024.78719053115,221088.81575927924,509771.1172427079,509898.05279946956,TASK2
2026-05-10T12:33:55.207+00:00,1273,97205,187889.16622271138,59149.42135207908,509168.2906947482,509221.8678262076,510017.07583869406,221099.00815475086,509763.1376699373,509889.8050057655,TASK2
2026-05-10T12:33:55.207+00:00,1273,97206,187887.3557314105,59169.2697011554,509152.53271490725,509206.3780673001,510001.58607978653,221112.15098049058,509747.64791102975,509874.04702592455,TASK2
2026-05-10T12:33:55.207+00:00,1273,97207,187885.5452401096,59194.75068983444,509153.87381957454,509207.98739290086,510003.1954053873,221125.02558529685,509749.52545756404,509875.9245724588,TASK2
2026-05-10T12:33:55.207+00:00,1273,97208,187885.07585347604,59195.8235735683,509160.8475638446,509214.69291623746,510009.6327077904,221134.41331796808,509756.23098090064,509882.36187486193,TASK2
2026-05-10T12:33:55.207+00:00,1273,97209,187884.6064668425,59206.28418997338,509152.86799107405,509206.4451225334,510001.6531350199,221142.9963878389,509747.71496626316,509874.1140811579,TASK2
2026-05-10T12:33:55.207+00:00,1273,97210,187882.93008600833,59219.69523664656,509149.3140637057,509202.82413993165,509997.76393148466,221157.48031824594,509743.75870749453,509871.0965956564,TASK2
2026-05-10T12:33:55.207+00:00,1273,97211,187880.0467109736,59237.66603918863,509133.5560838647,509187.0661600907,509982.27417257713,221178.93799292305,509728.5371695205,509855.6068367489,TASK2
2026-05-10T12:33:55.207+00:00,1273,97212,187881.6560365744,59245.71266719254,509134.62896759855,509187.87082289107,509983.347056311,221210.3198421383,509729.3418323209,509856.4114995493,TASK2
2026-05-10T12:33:55.207+00:00,1273,97213,187883.8018040421,59235.31910602083,509142.13915373554,509195.6492299615,509990.5890215145,221242.7745750874,509736.85201845784,509863.3852438193,TASK2
2026-05-10T12:33:55.207+00:00,1273,97214,187882.52775460813,59240.14708282317,509130.4044878965,509183.9145641225,509979.12257660896,221278.44795923808,509725.11735261884,509851.6505779803,TASK2
2026-05-10T12:33:55.207+00:00,1273,97215,187882.32658890804,59242.29285029088,509123.7660197932,509177.27609601925,509972.21588757227,221317.87643645724,509718.4788845156,509845.2803308106,TASK2
2026-05-10T12:33:55.207+00:00,1273,97216,187883.66769357538,59252.4852457625,509109.61736555304,509163.12744177907,509958.8718961324,221353.81804154135,509705.40311400924,509831.93633937073,TASK2
2026-05-10T12:33:55.207+00:00,1273,97217,187886.61812384348,59268.0420599034,509136.17123796593,509189.4130932585,509988.6444197469,221366.96086728107,509735.1756376237,509861.7088629852,TASK2
2026-05-10T12:33:55.207+00:00,1273,97218,187889.56855411158,59260.06248713285,509172.38106398354,509225.89114020957,510022.4402573633,221351.73932930702,509768.7032543067,509895.5047006016,TASK2
2026-05-10T12:33:55.207+00:00,1273,97219,187888.5627256111,59270.25488260447,509159.84173534415,509213.3518115701,510008.82804499,221325.7889539944,509755.35926286684,509882.16070916184,TASK2
2026-05-10T12:33:55.207+00:00,1273,97220,187888.5627256111,59281.788382743405,509153.47148817434,509206.98156440037,510002.1895768868,221299.83857868178,509748.72079476365,509875.5222410586,TASK2
2026-05-10T12:33:55.207+00:00,1273,97221,187893.12248147995,59300.83206901933,509138.7863920672,509192.0282473598,509987.2362598462,221270.1331103007,509733.767477723,509860.83714495145,TASK2
2026-05-10T12:33:55.207+00:00,1273,97222,187903.85131881852,59316.38888316022,509138.5852263671,509191.5588607262,509986.4986522792,221243.37807218768,509733.29809108947,509860.3677583179,TASK2
2026-05-10T12:33:55.207+00:00,1273,97223,187913.23905148974,59324.435511164134,509144.75430783676,509197.72794219584,509992.9359546823,221216.35481314122,509739.7353934926,509866.805060721,TASK2
2026-05-10T12:33:55.207+00:00,1273,97224,187919.94457482634,59331.67747636765,509135.16540946544,509188.407264758,509983.6152772445,221196.57351929828,509730.1464951213,509857.4843832832,TASK2
2026-05-10T12:33:55.207+00:00,1273,97225,187924.23610976175,59337.31011597039,509131.4773716303,509184.7192269229,509979.9272394093,221189.3986093281,509726.4584572861,509853.52812451456,TASK2
2026-05-10T12:33:55.207+00:00,1273,97226,187927.18654002986,59361.18177904866,509115.9876127228,509169.2294680154,509964.4374805018,221185.17412962607,509710.70047744515,509838.3065865405,TASK2
2026-05-10T12:33:55.625+00:00,1274,97227,187934.69672616685,59380.22546532458,509119.4744848578,509172.7163401504,509967.65613170335,221174.78056845436,509714.18734958017,509841.2570168086,TASK2
2026-05-10T12:33:55.625+00:00,1274,97228,187941.13402856997,59378.4149740237,509126.71645006136,509179.69008442044,509974.8980969069,221169.75142595192,509721.69753571716,509848.23076107865,TASK2
2026-05-10T12:33:55.625+00:00,1274,97229,187946.23022630578,59389.41203229571,509115.2500051558,509168.2236395149,509963.4316520013,221165.52694624985,509710.2310908116,509837.03253710654,TASK2
2026-05-10T12:33:55.625+00:00,1274,97230,187951.0582031081,59404.70062550314,509108.3433161191,509161.3169504782,509956.25674203114,221162.91179214857,509703.05618084146,509829.8576271364,TASK2
2026-05-10T12:33:55.625+00:00,1274,97231,187954.2768543097,59428.03584671448,509097.6815340139,509150.92338930647,509946.1314017929,221161.36952178116,509692.66261966975,509819.4640659647,TASK2
2026-05-10T12:33:55.625+00:00,1274,97232,187960.9823776463,59439.301125919956,509103.8506154836,509157.0924707761,509952.8369251295,221159.5590304803,509699.09992207284,509826.1695893013,TASK2
2026-05-10T12:33:55.625+00:00,1274,97233,187966.88323818246,59442.787998054984,509111.0925806871,509164.33443597966,509960.078890333,221155.33455077824,509706.61010820983,509833.6797754383,TASK2
2026-05-10T12:33:55.625+00:00,1274,97234,187972.51587778522,59442.31861142142,509103.11300791655,509156.0866422756,509952.0993175625,221148.1596408081,509698.36231450585,509825.70020266774,TASK2
2026-05-10T12:33:55.625+00:00,1274,97235,187978.95318018834,59452.511006893044,509098.8885282145,509151.5939416401,509948.14305879385,221134.27920750133,509694.1378348038,509821.20750203216,TASK2
2026-05-10T12:33:55.625+00:00,1274,97236,187986.46336632533,59482.55175144097,509086.885641442,509139.5910548676,509935.8719510879,221118.25300672688,509682.1349480313,509809.2046152597,TASK2
2026-05-10T12:33:55.625+00:00,1274,97237,187997.99686646427,59496.76746091455,509089.56785077666,509142.54148513573,509939.0906022895,221107.5912246217,509685.08537829935,509812.1550455278,TASK2
2026-05-10T12:33:55.625+00:00,1274,97238,188007.65282006896,59492.27476027903,509098.1509206475,509151.39277594,509947.6736721603,221094.51545411535,509693.66844817024,509820.7381153986,TASK2
2026-05-10T12:33:55.625+00:00,1274,97239,188012.21257593783,59506.22224881914,509088.0255804092,509141.53565663524,509937.54833192204,221077.1481486736,509683.8113288654,509810.61277516035,TASK2
2026-05-10T12:33:55.625+00:00,1274,97240,188017.0405527402,59515.87820242384,509085.1422053745,509138.6522816005,509934.6649568873,221072.3872271046,509681.19617476413,509807.9976210591,TASK2
2026-05-10T12:33:55.625+00:00,1274,97241,188021.86852954252,59544.24256613762,509071.99937963474,509125.2412349273,509920.7845235806,221077.21520390693,509666.9804652906,509794.050132519,TASK2
2026-05-10T12:33:55.625+00:00,1274,97242,188030.71982034683,59560.60404307891,509073.07226336864,509126.31411866116,509921.58918638097,221074.86827073913,509667.78512809094,509794.8547953194,TASK2
2026-05-10T12:33:55.625+00:00,1274,97243,188038.76644835074,59560.60404307891,509081.65533323947,509134.897188532,509929.90403531835,221069.8391282367,509676.0999770283,509803.16964425676,TASK2
2026-05-10T12:33:55.625+00:00,1274,97244,188042.52154141924,59551.81980750797,509080.38128380553,509133.3549181646,509928.3617649509,221073.5942213052,509674.55770666094,509801.8955948228,TASK2
2026-05-10T12:33:55.625+00:00,1274,97245,188046.00841355426,59547.59532780592,509073.20637383533,509125.91178726096,509921.18685498077,221080.56796557523,509667.65101762424,509794.7206848526,TASK2
2026-05-10T12:33:55.625+00:00,1274,97246,188049.76350662275,59564.493246614125,509059.86238239554,509112.5677958212,509909.18396820826,221089.15103544606,509655.3799099183,509782.4495771467,TASK2
2026-05-10T12:33:55.625+00:00,1274,97247,188049.76350662275,59567.17545594877,509105.4599410844,509157.8971335765,509959.8777246329,221097.73410531692,509705.80544540944,509833.1433335713,TASK2
2026-05-10T12:33:55.625+00:00,1274,97248,188042.85681758606,59524.86360369487,509163.66388364596,509216.10107613815,510013.52191132563,221099.87987278463,509759.71785303566,509887.05574119755,TASK2
2026-05-10T12:33:55.625+00:00,1274,97249,188033.5361401482,59489.79371664449,509151.12455500657,509203.29352656525,509998.8368152185,221096.72827681643,509745.03275692853,509872.63886602386,TASK2
2026-05-10T12:33:55.625+00:00,1274,97250,188025.55656737764,59479.66837640624,509134.83013329864,509187.2673257908,509982.8106144441,221095.72244831594,509729.00655615405,509856.6126652494,TASK2
2026-05-10T12:33:55.625+00:00,1274,97251,188019.9909830083,59490.128992811326,509115.31706038915,509168.0224738148,509963.2975415346,221094.44839888197,509709.49348324456,509836.83137140644,TASK2
2026-05-10T12:33:55.625+00:00,1274,97252,188020.5274248752,59482.149420040776,509111.3608016206,509164.06621504616,509959.34128276596,221098.73993381741,509705.2690035425,509832.8751126379,TASK2
2026-05-10T12:33:55.625+00:00,1274,97253,188020.05803824164,59457.27192846202,509116.9934412233,509169.6988546489,509964.9739223687,221104.10435248667,509711.1698640787,509838.5077522406,TASK2
2026-05-10T12:33:55.625+00:00,1274,97254,188016.10177947307,59450.90168129226,509105.2587753843,509158.23240974336,509953.50747746316,221110.27343395635,509699.4351982397,509826.5048654681,TASK2
2026-05-10T12:33:55.625+00:00,1274,97255,188013.75484630527,59456.534320895,509097.2792026137,509150.25283697277,509945.52790469263,221119.66116662757,509691.18740453565,509818.52529269754,TASK2
2026-05-10T12:33:55.625+00:00,1274,97256,188011.6761340709,59473.43223970321,509085.27631584124,509137.9817292668,509933.5250179201,221127.439573698,509679.7209596301,509806.79062685854,TASK2
2026-05-10T12:33:55.625+00:00,1274,97257,188012.74901780477,59476.38266997131,509089.56785077666,509142.27326420223,509937.81655285554,221135.48620170192,509684.0124945655,509811.61860366084,TASK2
2026-05-10T12:33:55.625+00:00,1274,97258,188010.6703055704,59474.57217867043,509092.51828104473,509145.22369447036,509940.7669831236,221144.87393437314,509686.96292483364,509814.569033929,TASK2
2026-05-10T12:33:55.625+00:00,1274,97259,188004.8365002676,59489.32433001093,509084.00226640725,509136.7076798329,509932.2509684861,221155.33455077824,509677.9104683292,509805.78479835804,TASK2
2026-05-10T12:33:55.625+00:00,1274,97260,188002.75778803325,59488.05028057698,509081.38711230597,509134.36074666504,509929.6358143849,221167.67271371756,509675.29531422793,509803.16964425676,TASK2
2026-05-10T12:33:55.625+00:00,1274,97261,188000.14263393197,59502.80243191748,509068.84778366657,509121.5531970922,509917.3647066789,221179.74265572344,509663.024206522,509790.6303156173,TASK2
2026-05-10T12:33:55.625+00:00,1274,97262,188002.8248432666,59514.53709775652,509072.87109766854,509126.0458977277,509921.1197997474,221191.8125977293,509667.44985192415,509794.3183534525,TASK2
2026-05-10T12:33:55.625+00:00,1274,97263,188005.23883166778,59509.77617618754,509078.2355163378,509131.6785373304,509926.7524393501,221193.42192333008,509673.08249152685,509800.21921398863,TASK2
2026-05-10T12:33:55.625+00:00,1274,97264,188006.84815726857,59515.9452576572,509070.25594356726,509123.6989645599,509919.0410875131,221191.87965296267,509665.1029187563,509792.5078621516,TASK2
2026-05-10T12:33:55.625+00:00,1274,97265,188008.45748286936,59528.01519966307,509066.56790573214,509119.7427057913,509915.08482874447,221192.4160948296,509661.14665998775,509788.551603383,TASK2
2026-05-10T12:33:55.625+00:00,1274,97266,188011.6761340709,59548.66821153977,509052.95569335885,509106.39871435147,509901.4726163712,221194.5618622973,509647.8026685479,509774.9393910097,TASK2
2026-05-10T12:33:55.625+00:00,1274,97267,188017.30877367363,59555.91017674329,509057.7836701612,509111.22669115383,509906.568814107,221197.24407163193,509652.63064535026,509779.76736781205,TASK2
2026-05-10T12:33:55.625+00:00,1274,97268,188022.9414132764,59549.0034877066,509063.95275163086,509117.12755169004,509912.4696746432,221192.7513709964,509658.53150588647,509785.4000074148,TASK2
2026-05-10T12:33:55.625+00:00,1274,97269,188025.35540167755,59563.21919718017,509055.7049579268,509108.879757986,509904.2218809392,221184.5035772924,509650.2837121825,509777.15221371077,TASK2
2026-05-10T12:33:55.625+00:00,1274,97270,188027.2329482118,59579.84889505492,509048.5300479567,509101.70484801586,509897.3151919025,221181.62020225768,509643.3770231458,509770.2455246741,TASK2
2026-05-10T12:33:55.625+00:00,1274,97271,188032.06092501414,59606.40276746784,509035.1860565169,509088.09263564256,509883.9712004627,221182.42486505807,509630.03303170594,509757.1697541677,TASK2
2026-05-10T12:33:55.625+00:00,1274,97272,188043.59442515307,59603.5193924331,509045.3784519885,509098.01681018074,509893.89537500084,221188.0575046608,509640.22542717756,509767.36214963935,TASK2
2026-05-10T12:33:55.625+00:00,1274,97273,188051.90927409046,59585.07920325747,509052.0839753251,509104.72233351733,509900.332677404,221195.03124893087,509646.93095051416,509774.06767297594,TASK2
2026-05-10T12:33:55.625+00:00,1274,97274,188057.00547182627,59586.15208699132,509041.95863508683,509094.59699327906,509889.9391162323,221204.95542346901,509636.53738934244,509763.6741118042,TASK2
2026-05-10T12:33:55.625+00:00,1274,97275,188061.8334486286,59593.662273128306,509036.9294925844,509089.8360717101,509884.9099737298,221214.6113770737,509631.50824684,509758.64496930176,TASK2
2026-05-10T12:33:55.625+00:00,1274,97276,188063.97921609634,59616.19283153926,509028.14525701344,509080.5153942722,509877.73506375967,221218.09824920874,509624.60155780334,509751.7382802651,TASK2
2026-05-10T12:33:55.625+00:00,1274,97277,188065.05209983018,59608.481479702175,509094.39582757896,509147.03418577125,509949.081832061,221219.43935387605,509695.4118842377,509822.81682763295,TASK2
2026-05-10T12:33:55.625+00:00,1274,97278,188060.2911782612,59549.539929573526,509149.381118939,509202.0194771313,509998.97092568525,221219.23818817595,509745.03275692853,509872.43770032376,TASK2
2026-05-10T12:33:55.625+00:00,1274,97279,188046.67896588793,59517.95691465818,509126.91761576146,509179.5559739537,509975.4345387738,221218.7688015424,509722.032811884,509849.1695343458,TASK2
2026-05-10T12:33:55.625+00:00,1274,97280,188032.53031164772,59501.3942720168,509113.0371824547,509165.9437615804,509961.2858845336,221221.45101087703,509708.1523785773,509835.28910103906,TASK2
2026-05-10T12:33:55.625+00:00,1274,97281,188018.11343647403,59507.83157441993,509096.7427607468,509149.381118939,509944.72324189224,221224.13322021166,509691.3215150024,509818.72645839764,TASK2
2026-05-10T12:33:55.625+00:00,1274,97282,188008.25631716926,59508.90445815378,509096.00515317975,509148.64351137204,509943.9856343252,221227.88831328016,509690.85212836886,509817.98885083065,TASK2
2026-05-10T12:33:55.625+00:00,1274,97283,188001.617849066,59493.14647831279,509095.80398747965,509148.64351137204,509943.51624769164,221228.42475514708,509690.85212836886,509817.78768513055,TASK2
2026-05-10T12:33:55.625+00:00,1274,97284,187996.3204856301,59492.1406498123,509086.21508910833,509139.32283393416,509934.19557025377,221222.3227289108,509680.99500906403,509808.1987867592,TASK2
2026-05-10T12:33:55.625+00:00,1274,97285,187992.36422686154,59499.65083594928,509082.25883033976,509135.36657516554,509930.2393114852,221217.83002827526,509677.03875029547,509803.97430705716,TASK2
2026-05-10T12:33:55.625+00:00,1274,97286,187988.6761890264,59515.207650090175,509068.378397033,509121.4861418588,509916.3588781784,221215.48309510745,509663.15831698873,509790.6303156173,TASK2
2026-05-10T12:33:55.625+00:00,1274,97287,187991.76072976124,59519.0968536254,509070.1888883339,509123.2966331597,509918.50464564614,221214.94665324053,509664.43236642267,509791.8373098179,TASK2
2026-05-10T12:33:55.625+00:00,1274,97288,187990.48668032727,59516.48169952413,509076.08974887006,509128.92927276244,509923.8690643154,221214.94665324053,509669.7967850919,509796.9335075537,TASK2
2026-05-10T12:33:55.625+00:00,1274,97289,187987.33508435907,59522.38256006033,509067.57373423263,509120.41325812496,509915.6212706114,221216.8241997748,509661.2807704545,509788.4174929163,TASK2
2026-05-10T12:33:55.625+00:00,1274,97290,187983.37882559048,59531.77029273156,509065.2268010648,509118.3345458906,509913.2743374436,221218.9699672425,509658.93383728666,509786.07055974845,TASK2
2026-05-10T12:33:55.625+00:00,1274,97291,187978.88612495497,59550.81397900748,509058.85655389505,509111.6960777874,509909.58629960846,221216.35481314122,509655.514020385,509782.6507428468,TASK2
2026-05-10T12:33:55.625+00:00,1274,97292,187973.58876151906,59531.569127031464,509163.73093887937,509216.5704627717,510022.77553353016,221209.17990317108,509768.97147524013,509895.571755835,TASK2
2026-05-10T12:33:55.625+00:00,1274,97293,187961.85409568003,59439.636402086784,509260.2904749263,509312.8617778852,510110.75199970626,221191.54437679582,509856.6797204828,509983.2800010776,TASK2
2026-05-10T12:33:55.625+00:00,1274,97294,187938.58592970207,59380.9630728916,509231.92611121247,509284.49741417135,510080.24186852475,221171.22664108596,509826.1695893013,509952.7698698961,TASK2
2026-05-10T12:33:55.625+00:00,1274,97295,187917.19531025834,59348.3071742424,509208.92616616795,509261.76569006033,510057.5101444137,221157.34620777922,509803.4378651902,509930.0381457851,TASK2
2026-05-10T12:33:55.625+00:00,1274,97296,187897.4140164154,59335.767845602975,509182.17112805496,509235.2788728808,510030.7551063007,221149.36663500866,509776.6828270772,509903.28310767206,TASK2
2026-05-10T12:33:55.625+00:00,1274,97297,187884.33824590902,59317.32765642735,509177.67842741945,509230.7861722453,510026.2624056652,221150.43951874253,509772.1901264417,509898.79040703655,TASK2
2026-05-10T12:33:55.625+00:00,1274,97298,187870.9942544692,59290.84083924781,509176.13615705207,509229.24390187784,510024.4519143643,221153.38994901063,509770.64785607427,509897.24813666916,TASK2
2026-05-10T12:33:55.625+00:00,1274,97299,187855.2362746282,59296.473478850545,509160.6463981445,509213.7541429703,510008.9621554568,221148.3608065082,509754.8898762333,509881.49015682813,TASK2
2026-05-10T12:33:55.625+00:00,1274,97300,187841.6240622549,59305.32476965485,509156.4219184425,509209.52966326824,510004.7376757547,221139.57657093724,509750.6653965312,509877.53389805957,TASK2
2026-05-10T12:33:55.625+00:00,1274,97301,187827.74362894817,59328.65999086619,509143.0779270026,509196.18567182845,509991.1254633814,221131.5969981667,509737.5896260249,509864.1899066197,TASK2
2026-05-10T12:33:55.625+00:00,1274,97302,187820.83693991147,59335.36551420278,509144.95547353686,509197.5267764958,509993.0030099157,221126.56785566427,509739.1989516257,509865.7992322205,TASK2
2026-05-10T12:33:55.625+00:00,1274,97303,187816.6124602094,59329.79992983341,509150.3198922062,509203.1594160985,509998.6356495184,221125.02558529685,509744.83159122843,509871.43187182327,TASK2
2026-05-10T12:33:55.625+00:00,1274,97304,187813.46086424123,59336.50545317,509139.92633103445,509192.7658549268,509987.97386741324,221123.4833149294,509733.90158818976,509860.7700897181,TASK2
2026-05-10T12:33:55.625+00:00,1274,97305,187813.46086424123,59341.06520903888,509133.2878629312,509186.39560775703,509981.6036202435,221124.55619866328,509727.53134102,509854.13162161486,TASK2
2026-05-10T12:33:55.625+00:00,1274,97306,187812.45503574074,59361.44999998212,509119.40742962447,509172.2469535168,509967.72318693675,221121.40460269508,509713.9191286467,509840.51940924156,TASK2
2026-05-10T12:33:55.625+00:00,1274,97307,187814.0643613415,59373.51994198799,509128.2587204288,509181.0982443211,509976.8426986745,221118.25300672688,509722.770419451,509849.3707000459,TASK2
2026-05-10T12:33:55.625+00:00,1274,97308,187817.0147916096,59365.00392735052,509134.96424376534,509188.07198859117,509983.0117801442,221112.6874223575,509729.20772185415,509855.53978151554,TASK2
2026-05-10T12:33:55.625+00:00,1274,97309,187817.0147916096,59371.44122975364,509122.1566941925,509174.9962180848,509970.2042305713,221107.3900589216,509716.40017228125,509842.73223194265,TASK2
2026-05-10T12:33:55.625+00:00,1274,97310,187812.79031190756,59390.48491602956,509117.9322144904,509170.77173838275,509965.71152993577,221106.11600948765,509711.90747164574,509838.23953130713,TASK2
2026-05-10T12:33:55.625+00:00,1274,97311,187809.63871593936,59419.452776843646,509106.7339905183,509159.57351441064,509954.24508503015,221110.40754442307,509700.7092476736,509827.041307335,TASK2
2026-05-10T12:33:55.625+00:00,1274,97312,187812.05270434055,59422.67142804521,509110.7573045203,509163.5968284126,509958.53661996557,221124.62325389666,509705.00078260904,509831.33284227044,TASK2
2026-05-10T12:33:55.625+00:00,1274,97313,187816.88068114288,59401.549029534945,509114.2441766553,509166.8154796142,509962.2917130341,221144.47160297295,509708.48765474407,509834.81971440546,TASK2
2026-05-10T12:33:55.625+00:00,1274,97314,187824.86025391342,59384.65111072673,509106.666935285,509159.9087905775,509955.7873553976,221167.47154801746,509701.78213140747,509828.38241200236,TASK2
2026-05-10T12:33:55.625+00:00,1274,97315,187828.34712604847,59395.64816899874,509101.10135091556,509154.07498527464,509949.6853291613,221182.49192029145,509695.94832610467,509822.5486066995,TASK2
