timestamp_utc,packet_index,sample_index,AF3,AF4,F3,F4,FC5,FC6,O2,O1,label
2026-04-28T11:11:59.973+00:00,1099,78052,64399.712014163975,63279.2861198528,143334.51757842512,101170.7232798008,113051.97185897492,97046.96053826337,179428.40509753287,83616.66901310314,TASK1
2026-04-28T11:11:59.973+00:00,1099,78053,64402.12600256515,63275.32986108421,143334.78579935856,101169.98567223379,113050.96603047443,97046.75937256328,179428.20393183277,83621.76521083894,TASK1
2026-04-28T11:11:59.973+00:00,1099,78054,64400.31551126426,63273.51936978333,143333.77997085807,101170.52211410072,113049.69198104048,97047.29581443021,179426.66166146536,83624.44742017359,TASK1
2026-04-28T11:11:59.973+00:00,1099,78055,64398.77324089685,63275.12869538411,143331.43303769027,101168.71162279983,113047.61326880613,97046.28998592972,179422.70540269677,83622.6369288727,TASK1
2026-04-28T11:11:59.973+00:00,1099,78056,64399.04146183031,63276.201579117966,143330.69543012325,101168.9798437333,113047.41210310603,97047.36286966357,179422.97362363024,83625.85558007426,TASK1
2026-04-28T11:11:59.973+00:00,1099,78057,64399.846124630705,63276.00041341787,143331.76831385712,101168.9798437333,113048.48498683989,97047.63109059705,179424.0465073641,83629.61067314276,TASK1
2026-04-28T11:11:59.973+00:00,1099,78058,64400.11434556417,63276.268634351334,143332.5729766575,101168.7786780332,113049.82609150722,97048.43575339743,179424.31472829756,83633.63398714471,TASK1
2026-04-28T11:11:59.973+00:00,1099,78059,64400.6507874311,63277.877959952115,143333.64586039135,101170.11978270052,113049.82609150722,97051.11796273207,179425.38761203142,83637.92552208013,TASK1
2026-04-28T11:11:59.973+00:00,1099,78060,64400.6507874311,63279.75550648636,143334.71874412522,101170.38800363398,113049.35670487364,97051.38618366553,179426.72871669874,83641.94883608208,TASK1
2026-04-28T11:11:59.973+00:00,1099,78061,64400.6507874311,63279.554340786264,143333.98113655817,101169.65039606695,113050.4295886075,97050.11213423157,179425.72288819824,83644.36282448327,TASK1
2026-04-28T11:11:59.973+00:00,1099,78062,64401.99189209841,63280.09078265319,143333.77997085807,101168.376346633,113052.03891420829,97049.10630573108,179424.71705969775,83647.84969661829,TASK1
2026-04-28T11:11:59.973+00:00,1099,78063,64403.86943863266,63282.2365501209,143334.85285459194,101169.18100943339,113053.91646074253,97050.44741039841,179424.98528063123,83652.67767342064,TASK1
2026-04-28T11:11:59.973+00:00,1099,78064,64406.81986890076,63280.69427975348,143336.99862205965,101170.52211410072,113057.1351119441,97054.73894533383,179426.32638529854,83658.0420920899,TASK1
2026-04-28T11:11:59.973+00:00,1099,78065,64405.00937759988,63279.95667218646,143336.52923542607,101168.44340186637,113056.66572531054,97054.53777963373,179428.20393183277,83662.06540609186,TASK1
2026-04-28T11:11:59.973+00:00,1099,78066,64404.27177003286,63281.8342187207,143335.79162785906,101167.43757336588,113055.12345494312,97050.58152086513,179428.47215276625,83667.96626662806,TASK1
2026-04-28T11:11:59.973+00:00,1099,78067,64406.1493165671,63279.75550648636,143335.05402029204,101166.69996579886,113054.92228924303,97049.03925049772,179429.00859463317,83675.74467369851,TASK1
2026-04-28T11:11:59.973+00:00,1099,78068,64406.417537500565,63280.29194835329,143335.59046215896,101167.50462859924,113055.7269520434,97050.64857609851,179428.27098706615,83677.89044116622,TASK1
2026-04-28T11:11:59.973+00:00,1099,78069,64407.22220030096,63277.94501518548,143335.1210755254,101166.76702103222,113056.79983577726,97051.4532388989,179428.06982136605,83677.89044116622,TASK1
2026-04-28T11:11:59.973+00:00,1099,78070,64405.41170900008,63276.402744818064,143333.04236329105,101165.22475066481,113057.06805671073,97050.17918946495,179428.06982136605,83680.84087143432,TASK1
2026-04-28T11:11:59.973+00:00,1099,78071,64404.40588049959,63275.12869538411,143332.5729766575,101165.22475066481,113056.86689101064,97051.2520731988,179428.60626323297,83683.79130170243,TASK1
2026-04-28T11:11:59.973+00:00,1099,78072,64404.942322366514,63276.201579117966,143333.37763945787,101166.02941346519,113056.66572531054,97052.32495693266,179428.87448416644,83688.08283663784,TASK1
2026-04-28T11:11:59.973+00:00,1099,78073,64404.942322366514,63278.8837884526,143333.37763945787,101166.56585533213,113057.20216717746,97051.31912843217,179429.9473679003,83693.98369717404,TASK1
2026-04-28T11:11:59.973+00:00,1099,78074,64407.35631076769,63282.907102454556,143336.05984879253,101167.50462859924,113060.68903931249,97052.86139879958,179428.94153939982,83693.31314484039,TASK1
2026-04-28T11:11:59.973+00:00,1099,78075,64406.08226133374,63282.16949488753,143335.05402029204,101167.50462859924,113060.95726024595,97054.47072440037,179425.52172249815,83691.5026535395,TASK1
2026-04-28T11:11:59.973+00:00,1099,78076,64408.228028801444,63281.96832918743,143334.85285459194,101166.49880009877,113061.49370211289,97053.19667496641,179425.52172249815,83693.38020007375,TASK1
2026-04-28T11:11:59.973+00:00,1099,78077,64407.758642167886,63282.772991987826,143334.65168889184,101165.49297159827,113061.49370211289,97051.654404599,179426.86282716546,83698.74461874302,TASK1
2026-04-28T11:11:59.973+00:00,1099,78078,64409.0997468352,63282.57182628773,143335.18813075876,101166.02941346519,113063.10302771366,97052.99550926631,179427.3992690324,83703.57259554537,TASK1
2026-04-28T11:11:59.973+00:00,1099,78079,64410.97729336945,63281.029555920315,143334.71874412522,101166.02941346519,113065.24879518137,97053.80017206671,179428.20393183277,83711.35100261582,TASK1
2026-04-28T11:11:59.973+00:00,1099,78080,64410.97729336945,63277.877959952115,143334.71874412522,101164.75536403124,113062.90186201356,97053.80017206671,179427.46632426576,83713.76499101699,TASK1
2026-04-28T11:11:59.973+00:00,1099,78081,64408.362139268174,63279.219064619436,143333.17647375778,101165.8282477651,113060.2867079123,97055.67771860096,179426.72871669874,83717.78830501894,TASK1
2026-04-28T11:11:59.974+00:00,1099,78082,64409.16680206857,63280.56016928675,143334.51757842512,101165.09064019808,113060.55492884576,97056.75060233481,179424.38178353093,83717.31891838538,TASK1
2026-04-28T11:11:59.974+00:00,1099,78083,64412.6536742036,63279.822561719724,143336.39512495935,101163.81659076412,113060.55492884576,97053.59900636661,179424.6500044644,83719.19646491963,TASK1
2026-04-28T11:11:59.974+00:00,1099,78084,64410.84318290272,63279.822561719724,143335.1210755254,101163.61542506402,113059.54910034526,97052.32495693266,179426.52755099864,83725.3655463893,TASK1
2026-04-28T11:11:59.974+00:00,1099,78085,64411.647845703104,63281.96832918743,143334.11524702492,101163.88364599748,113058.00682997785,97051.0509074987,179424.98528063123,83727.77953479046,TASK1
2026-04-28T11:11:59.974+00:00,1099,78086,64410.64201720262,63282.772991987826,143332.5729766575,101163.14603843047,113056.19633867698,97051.31912843217,179425.25350156467,83729.92530225817,TASK1
2026-04-28T11:11:59.974+00:00,1099,78087,64408.026863101346,63282.57182628773,143331.56714815702,101161.33554712958,113056.7327805439,97050.31329993167,179426.32638529854,83734.48505812706,TASK1
2026-04-28T11:11:59.974+00:00,1099,78088,64407.02103460086,63282.10243965417,143330.29309872305,101161.13438142948,113056.26339391034,97050.84974179861,179427.3992690324,83739.31303492941,TASK1
2026-04-28T11:11:59.974+00:00,1099,78089,64408.362139268174,63284.51642805534,143330.82954058997,101161.40260236296,113056.5316148438,97050.11213423157,179427.3992690324,83739.31303492941,TASK1
2026-04-28T11:11:59.974+00:00,1099,78090,64408.8985811351,63280.56016928675,143331.36598245692,101158.25100639476,113058.14094044459,97048.03342199723,179428.20393183277,83743.87279079828,TASK1
2026-04-28T11:11:59.974+00:00,1099,78091,64408.69741543501,63277.40857331855,143331.36598245692,101155.09941042656,113059.21382417844,97047.29581443021,179428.20393183277,83749.50543040103,TASK1
2026-04-28T11:11:59.974+00:00,1099,78092,64408.96563636847,63276.1345238846,143333.24352899115,101154.630023793,113061.62781257961,97046.82642779665,179427.46632426576,83752.72408160259,TASK1
2026-04-28T11:11:59.974+00:00,1099,78093,64414.06183410428,63276.402744818064,143334.04819179155,101154.16063715942,113061.15842594605,97047.63109059705,179425.38761203142,83751.7182531021,TASK1
2026-04-28T11:11:59.974+00:00,1099,78094,64414.06183410428,63279.621396019626,143333.84702609145,101154.96529995982,113061.15842594605,97049.24041619782,179427.26515856566,83758.42377643869,TASK1
2026-04-28T11:11:59.974+00:00,1099,78095,64413.324226537254,63280.15783788655,143332.03653479056,101154.2276923928,113061.42664687951,97049.50863713128,179427.80160043258,83763.25175324104,TASK1
2026-04-28T11:11:59.974+00:00,1099,78096,64411.513735236374,63277.54268378529,143331.83536909046,101152.95364295885,113060.68903931249,97049.77685806475,179424.91822539785,83764.86107884182,TASK1
2026-04-28T11:11:59.974+00:00,1099,78097,64410.50790673589,63277.54268378529,143331.63420339036,101152.95364295885,113060.21965267893,97049.77685806475,179421.76662942965,83764.86107884182,TASK1
2026-04-28T11:11:59.974+00:00,1099,78098,64410.30674103579,63281.56599778724,143328.48260742216,101153.49008482577,113057.3362776442,97050.84974179861,179420.22435906224,83767.54328817646,TASK1
2026-04-28T11:11:59.974+00:00,1099,78099,64410.84318290272,63281.36483208714,143328.01322078862,101151.41137259142,113056.59867007718,97051.38618366553,179420.4925799957,83772.90770684573,TASK1
2026-04-28T11:11:59.974+00:00,1099,78100,64413.52539223735,63280.89544545358,143329.08610452246,101150.94198595786,113056.1292834436,97048.77102956426,179422.1019055965,83776.66279991422,TASK1
2026-04-28T11:11:59.974+00:00,1099,78101,64411.446680003006,63281.70010825397,143326.73917135465,101149.66793652391,113055.12345494312,97046.96053826337,179422.63834746342,83782.83188138389,TASK1
2026-04-28T11:11:59.974+00:00,1099,78102,64411.446680003006,63280.69427975348,143326.00156378763,101148.66210802342,113054.65406830955,97046.22293069636,179422.16896082985,83785.51409071853,TASK1
2026-04-28T11:11:59.974+00:00,1099,78103,64411.446680003006,63279.688451252994,143325.53217715406,101147.65627952294,113054.184681676,97046.75937256328,179422.43718176332,83785.31292501843,TASK1
2026-04-28T11:11:59.974+00:00,1099,78104,64411.446680003006,63277.07329715172,143324.79456958704,101143.70002075435,113054.45290260945,97042.53489286122,179424.0465073641,83792.8231111554,TASK1
2026-04-28T11:11:59.974+00:00,1099,78105,64413.79361317082,63278.146180885575,143325.59923238744,101142.56008178713,113055.19051017649,97039.4503521264,179425.32055679805,83798.99219262507,TASK1
2026-04-28T11:11:59.974+00:00,1099,78106,64413.056005603794,63277.94501518548,143325.59923238744,101141.28603235318,113054.98934447639,97038.71274455937,179423.77828643064,83798.79102692497,TASK1
2026-04-28T11:11:59.974+00:00,1099,78107,64413.59244747072,63276.670965751524,143325.12984575387,101140.8166457196,113056.86689101064,97040.59029109361,179422.77245793014,83800.93679439268,TASK1
2026-04-28T11:11:59.974+00:00,1099,78108,64416.81109867228,63277.743849485385,143325.93450855426,101142.15775038693,113057.67155381103,97043.27250042825,179423.57712073054,83803.61900372732,TASK1
2026-04-28T11:11:59.974+00:00,1099,78109,64420.83441267424,63281.76716348734,143325.19690098724,101143.76707598771,113059.2808794118,97045.41826789596,179422.3030712966,83804.42366652771,TASK1
2026-04-28T11:11:59.974+00:00,1099,78110,64421.102633607705,63283.64471002158,143324.45929342022,101144.5717387881,113058.81149277824,97045.68648882942,179421.02902186263,83804.69188746117,TASK1
2026-04-28T11:11:59.974+00:00,1099,78111,64417.68281670604,63281.297776853775,143324.25812772012,101142.76124748723,113057.80566427775,97045.48532312932,179422.1019055965,83810.32452706392,TASK1
2026-04-28T11:11:59.974+00:00,1099,78112,64417.68281670604,63280.82839022022,143323.25229921963,101140.95075618634,113057.06805671073,97043.40661089499,179419.75497242867,83813.27495733202,TASK1
2026-04-28T11:11:59.974+00:00,1099,78113,64419.292142306826,63280.35900358665,143322.78291258606,101142.56008178713,113056.86689101064,97043.67483182845,179417.1398183274,83814.61606199933,TASK1
2026-04-28T11:11:59.974+00:00,1099,78114,64416.67698820555,63280.62722452012,143320.70420035173,101144.9740701883,113055.32462064322,97045.5523783627,179416.4022107604,83819.1758178682,TASK1
2026-04-28T11:11:59.974+00:00,1099,78115,64416.475822505454,63284.11409665515,143320.50303465163,101141.55425328664,113056.66572531054,97043.47366612835,179415.93282412682,83821.85802720285,TASK1
2026-04-28T11:11:59.974+00:00,1099,78116,64415.73821493843,63283.91293095505,143319.2289852177,101139.20732011883,113056.933946244,97042.1996166944,179416.2010450603,83825.07667840441,TASK1
2026-04-28T11:11:59.974+00:00,1099,78117,64416.274656805355,63278.34734658567,143316.6138311164,101137.39682881795,113055.9281177435,97041.19378819391,179416.46926599374,83831.24575987407,TASK1
2026-04-28T11:11:59.974+00:00,1099,78118,64416.07349110526,63273.85464595016,143315.60800261592,101136.39100031745,113055.9281177435,97039.6515178265,179419.68791719532,83837.95128321067,TASK1
2026-04-28T11:11:59.974+00:00,1099,78119,64414.799441671305,63274.92752968401,143315.40683691582,101137.73210498478,113056.7327805439,97042.33372716114,179421.2972427961,83841.97459721263,TASK1
2026-04-28T11:11:59.974+00:00,1099,78120,64415.6041044717,63282.70593675446,143312.5234618811,101139.60965151903,113053.84940550917,97045.5523783627,179413.31767002554,83835.06790817593,TASK1
2026-04-28T11:11:59.974+00:00,1099,78121,64413.79361317082,63283.51059955485,143308.29898217903,101139.87787245249,113050.16136767404,97047.96636676387,179408.55674845658,83834.06207967545,TASK1
2026-04-28T11:11:59.974+00:00,1099,78122,64412.78778467033,63282.772991987826,143306.48849087817,101140.14609338595,113048.88731824009,97049.03925049772,179408.55674845658,83837.54895181047,TASK1
2026-04-28T11:11:59.974+00:00,1099,78123,64413.324226537254,63284.11409665515,143306.7567118116,101141.48719805328,113046.00394320536,97049.30747143118,179407.01447808914,83839.15827741126,TASK1
2026-04-28T11:11:59.974+00:00,1099,78124,64413.324226537254,63285.45520132246,143306.28732517807,101142.29186085366,113044.19345190447,97050.11213423157,179408.35558275649,83844.79091701399,TASK1
2026-04-28T11:11:59.974+00:00,1099,78125,64411.78195616984,63287.06452692325,143305.28149667758,101142.29186085366,113046.07099843872,97049.91096853148,179411.0377920911,83854.98331248561,TASK1
2026-04-28T11:11:59.974+00:00,1099,78126,64414.39711027111,63288.60679729066,143305.68382807777,101141.28603235318,113048.08265543969,97047.16170396347,179410.9036816244,83857.53141135351,TASK1
2026-04-28T11:12:00.271+00:00,1100,78127,64413.92772363755,63284.65053852207,143304.94622051073,101140.54842478615,113047.07682693921,97046.69231732991,179412.2447862917,83860.48184162161,TASK1
2026-04-28T11:12:00.271+00:00,1100,78128,64411.8490114032,63282.57182628773,143303.4039501433,101141.08486665308,113045.26633563833,97049.64274759802,179413.31767002554,83866.11448122436,TASK1
2026-04-28T11:12:00.271+00:00,1100,78129,64409.5020782354,63283.91293095505,143301.0570169755,101140.6154800195,113046.33921937218,97051.52029413226,179414.3905537594,83870.94245802671,TASK1
2026-04-28T11:12:00.271+00:00,1100,78130,64410.038520102324,63282.907102454556,143301.0570169755,101139.34143058555,113046.33921937218,97050.24624469831,179416.53632122712,83873.62466736134,TASK1
2026-04-28T11:12:00.271+00:00,1100,78131,64409.837354402225,63281.096611153676,143299.24652567462,101138.60382301854,113045.86983273862,97049.24041619782,179417.07276309404,83875.23399296212,TASK1
2026-04-28T11:12:00.271+00:00,1100,78132,64411.446680003006,63282.70593675446,143298.24069717416,101139.40848581893,113045.86983273862,97052.99550926631,179415.26227179315,83873.15528072778,TASK1
2026-04-28T11:12:00.271+00:00,1100,78133,64411.98312186994,63285.65636702256,143296.9666477402,101141.28603235318,113044.86400423813,97055.67771860096,179413.72000142574,83875.03282726202,TASK1
2026-04-28T11:12:00.271+00:00,1100,78134,64412.78778467033,63285.45520132246,143295.42437737278,101140.28020385269,113045.13222517159,97051.98968076582,179412.4459519918,83877.17859472973,TASK1
2026-04-28T11:12:00.271+00:00,1100,78135,64412.31839803677,63282.840047221194,143294.68676980576,101137.93327068488,113047.00977170584,97049.91096853148,179412.98239385872,83879.32436219744,TASK1
2026-04-28T11:12:00.271+00:00,1100,78136,64411.312569536276,63280.49311405339,143292.87627850487,101135.58633751707,113046.80860600574,97047.56403536367,179414.0552775926,83884.15233899979,TASK1
2026-04-28T11:12:00.271+00:00,1100,78137,64411.8490114032,63280.29194835329,143292.13867093786,101134.31228808312,113044.19345190447,97046.82642779665,179411.97656535823,83887.63921113483,TASK1
2026-04-28T11:12:00.271+00:00,1100,78138,64410.84318290272,63279.822561719724,143291.4010633708,101134.11112238302,113044.72989377141,97046.82642779665,179410.7025159243,83892.46718793716,TASK1
2026-04-28T11:12:00.271+00:00,1100,78139,64411.91606663657,63280.09078265319,143290.12701393687,101132.5688520156,113046.07099843872,97045.82059929616,179408.62380368993,83891.9978013036,TASK1
2026-04-28T11:12:00.271+00:00,1100,78140,64411.178459069546,63280.09078265319,143288.58474356946,101131.29480258164,113044.52872807131,97045.3512126626,179407.8861961229,83893.60712690439,TASK1
2026-04-28T11:12:00.271+00:00,1100,78141,64411.446680003006,63281.431887320505,143287.57891506897,101131.83124444858,113044.32756237121,97046.96053826337,179408.95907985678,83898.43510370672,TASK1
2026-04-28T11:12:00.271+00:00,1100,78142,64410.17263056905,63284.91875945553,143287.84713600244,101133.44057004937,113043.58995480418,97046.22293069636,179408.75791415668,83900.58087117445,TASK1
2026-04-28T11:12:00.271+00:00,1100,78143,64411.513735236374,63285.45520132246,143287.84713600244,101132.70296248233,113041.24302163637,97044.41243939547,179405.338097255,83902.45841770868,TASK1
2026-04-28T11:12:00.271+00:00,1100,78144,64411.513735236374,63285.25403562236,143286.03664470155,101131.69713398184,113041.51124256983,97044.68066032894,179403.25938502068,83905.40884797678,TASK1
2026-04-28T11:12:00.271+00:00,1100,78145,64408.362139268174,63282.10243965417,143284.22615340067,101130.69130548136,113041.04185593627,97044.9488812624,179402.7899983871,83907.28639451103,TASK1
2026-04-28T11:12:00.271+00:00,1100,78146,64407.62453170115,63280.29194835329,143284.49437433414,101129.68547698087,113041.57829780321,97045.21710219586,179402.588832687,83909.16394104528,TASK1
2026-04-28T11:12:00.271+00:00,1100,78147,64410.30674103579,63279.822561719724,143284.49437433414,101128.67964848038,113042.65118153706,97044.21127369537,179402.588832687,83912.65081318031,TASK1
2026-04-28T11:12:00.271+00:00,1100,78148,64411.379624769645,63280.35900358665,143283.48854583365,101126.8691571795,113042.91940247052,97044.01010799527,179403.66171642087,83917.47878998265,TASK1
2026-04-28T11:12:00.271+00:00,1100,78149,64411.647845703104,63281.70010825397,143281.94627546624,101125.86332867901,113041.37713210311,97044.27832892875,179404.7346001547,83921.77032491808,TASK1
2026-04-28T11:12:00.271+00:00,1100,78150,64411.178459069546,63280.69427975348,143281.47688883267,101125.12572111198,113040.37130360262,97045.61943359606,179403.72877165422,83922.03854585154,TASK1
2026-04-28T11:12:00.271+00:00,1100,78151,64410.97729336945,63281.70010825397,143280.6051707989,101125.93038391237,113038.49375706837,97047.83225629713,179402.3876669869,83920.36216501739,TASK1
2026-04-28T11:12:00.271+00:00,1100,78152,64413.39128177062,63281.70010825397,143280.13578416535,101124.38811354496,113037.48792856788,97044.14421846201,179402.3876669869,83924.11725808588,TASK1
2026-04-28T11:12:00.271+00:00,1100,78153,64413.92772363755,63282.772991987826,143279.12995566486,101123.65050597793,113038.56081230173,97040.45618062689,179402.65588792038,83928.14057208784,TASK1
2026-04-28T11:12:00.271+00:00,1100,78154,64411.8490114032,63282.772991987826,143275.97835969666,101122.37645654398,113037.82320473471,97039.98679399332,179404.26521352114,83934.04143262403,TASK1
2026-04-28T11:12:00.271+00:00,1100,78155,64412.11723233667,63281.23072162041,143275.97835969666,101123.18111934437,113037.82320473471,97042.66900332796,179407.7520856562,83938.86940942638,TASK1
2026-04-28T11:12:00.271+00:00,1100,78156,64412.38545327013,63278.07912565221,143275.5089730631,101123.44934027783,113036.81737623422,97045.88765452952,179407.01447808914,83937.8635809259,TASK1
2026-04-28T11:12:00.271+00:00,1100,78157,64410.57496196925,63277.877959952115,143274.23492362915,101122.71173271081,113035.27510586681,97043.54072136171,179405.20398678828,83941.08223212746,TASK1
2026-04-28T11:12:00.271+00:00,1100,78158,64411.379624769645,63276.067468651236,143274.50314456262,101120.36479954301,113037.68909426797,97039.58446259313,179404.1981582878,83940.34462456043,TASK1
2026-04-28T11:12:00.271+00:00,1100,78159,64409.837354402225,63273.45231454996,143272.69265326174,101118.0178663752,113038.49375706837,97038.8468550261,179402.92410885383,83940.34462456043,TASK1
2026-04-28T11:12:00.271+00:00,1100,78160,64407.22220030096,63272.17826511601,143270.61394102738,101117.01203787471,113038.29259136827,97038.37746839254,179402.92410885383,83940.34462456043,TASK1
2026-04-28T11:12:00.271+00:00,1100,78161,64406.752813667394,63271.97709941591,143268.80344972652,101116.81087217461,113035.14099540007,97038.17630269245,179404.8016553881,83943.29505482853,TASK1
2026-04-28T11:12:00.271+00:00,1100,78162,64406.752813667394,63274.65930875055,143268.33406309295,101117.615534975,113033.06228316572,97039.2491864263,179404.8016553881,83945.97726416317,TASK1
2026-04-28T11:12:00.271+00:00,1100,78163,64408.8985811351,63276.00041341787,143269.94338869373,101117.88375590846,113033.86694596612,97040.32207016015,179405.60631818848,83947.05014789703,TASK1
2026-04-28T11:12:00.271+00:00,1100,78164,64409.97146486896,63276.268634351334,143271.01627242757,101118.15197684192,113036.54915530076,97041.12673296055,179407.21564378924,83949.4641362982,TASK1
2026-04-28T11:12:00.271+00:00,1100,78165,64411.58079046974,63277.877959952115,143271.28449336105,101119.22486057578,113037.89025996807,97043.27250042825,179406.47803622222,83948.4583077977,TASK1
2026-04-28T11:12:00.271+00:00,1100,78166,64412.6536742036,63275.53102678431,143271.08332766095,101118.2190320753,113036.61621053412,97043.80894229517,179407.01447808914,83950.87229619888,TASK1
2026-04-28T11:12:00.271+00:00,1100,78167,64411.91606663657,63275.79924771777,143269.27283636006,101117.74964544174,113036.41504483402,97043.07133472816,179407.81914088954,83955.96849393469,TASK1
2026-04-28T11:12:00.271+00:00,1100,78168,64414.86649690467,63276.067468651236,143270.88216196085,101118.55430824212,113038.02437043481,97042.6019480946,179408.35558275649,83958.38248233586,TASK1
2026-04-28T11:12:00.271+00:00,1100,78169,64416.20760157199,63273.45231454996,143272.49148756164,101118.35314254202,113040.17013790252,97039.18213119294,179408.35558275649,83956.03554916805,TASK1
2026-04-28T11:12:00.271+00:00,1100,78170,64416.20760157199,63272.44648604948,143271.75387999462,101117.07909310807,113038.89608846857,97036.56697709166,179409.96490835724,83959.25420036961,TASK1
2026-04-28T11:12:00.271+00:00,1100,78171,64414.39711027111,63271.97709941591,143268.06584215947,101113.65927620641,113036.81737623422,97034.75648579079,179408.95907985678,83961.93640970426,TASK1
2026-04-28T11:12:00.271+00:00,1100,78172,64411.78195616984,63271.50771278235,143265.98712992514,101113.65927620641,113035.00688493335,97034.75648579079,179405.27104202163,83958.24837186914,TASK1
2026-04-28T11:12:00.271+00:00,1100,78173,64411.312569536276,63267.55145401376,143264.71308049117,101110.23945930475,113033.19639363246,97030.53200608873,179402.11944605343,83960.6623602703,TASK1
2026-04-28T11:12:00.271+00:00,1100,78174,64410.038520102324,63265.20452084595,143264.24369385763,101107.62430520348,113033.46461456592,97028.72151478785,179401.11361755297,83963.6127905384,TASK1
2026-04-28T11:12:00.271+00:00,1100,78175,64408.76447066837,63266.545625513274,143262.96964442366,101106.88669763645,113033.46461456592,97029.25795665478,179401.3818384864,83965.75855800611,TASK1
2026-04-28T11:12:00.271+00:00,1100,78176,64408.29508403481,63267.61850924713,143260.89093218933,101106.4173110029,113032.7270069989,97031.40372412249,179401.6500594199,83969.24543014115,TASK1
2026-04-28T11:12:00.271+00:00,1100,78177,64410.97729336945,63265.53979701278,143260.89093218933,101106.95375286983,113033.26344886582,97034.89059625751,179401.4488937198,83967.9713807072,TASK1
2026-04-28T11:12:00.271+00:00,1100,78178,64412.854839903695,63269.697221481474,143262.70142349022,101110.03829360465,113034.87277446661,97039.71857305986,179405.0028210882,83971.39119760886,TASK1
2026-04-28T11:12:00.271+00:00,1100,78179,64413.65950270408,63270.50188428186,143263.23786535714,101110.30651453811,113035.677437267,97039.2491864263,179406.3439257555,83972.46408134271,TASK1
2026-04-28T11:12:00.271+00:00,1100,78180,64414.732386437936,63271.306547082255,143262.50025779012,101109.30068603763,113036.75032100086,97038.77979979274,179406.88036762242,83974.34162787696,TASK1
2026-04-28T11:12:00.271+00:00,1100,78181,64415.0006073714,63271.105381382156,143261.76265022307,101108.5630784706,113037.01854193432,97040.38912539351,179407.6850304228,83977.56027907852,TASK1
2026-04-28T11:12:00.271+00:00,1100,78182,64416.87815390565,63271.64182324908,143262.83553395694,101109.367741271,113038.35964660163,97040.18795969342,179408.75791415668,83980.77893028008,TASK1
2026-04-28T11:12:00.271+00:00,1100,78183,64417.951037639505,63270.6359947486,143263.37197582386,101108.63013370396,113039.4325303355,97038.91391025946,179409.83079789052,83984.53402334858,TASK1
2026-04-28T11:12:00.271+00:00,1100,78184,64420.63324697414,63274.12286688362,143263.37197582386,101109.1665755709,113042.91940247052,97039.98679399332,179410.9036816244,83982.18709018077,TASK1
2026-04-28T11:12:00.271+00:00,1100,78185,64420.16386034058,63273.385259316594,143262.63436825684,101107.35608427001,113042.45001583696,97039.78562829323,179409.8978531239,83980.64481981334,TASK1
2026-04-28T11:12:00.271+00:00,1100,78186,64419.694473707015,63272.11120988264,143261.09209788943,101106.61847670299,113040.63952453608,97040.59029109361,179407.28269902262,83979.10254944593,TASK1
2026-04-28T11:12:00.271+00:00,1100,78187,64423.181345842044,63268.95961391445,143262.43320255674,101104.27154353519,113042.51707107032,97038.77979979274,179406.27687052212,83977.56027907852,TASK1
2026-04-28T11:12:00.271+00:00,1100,78188,64423.71778770897,63268.49022728088,143261.96381592317,101102.19283130084,113043.32173387072,97035.62820382454,179406.27687052212,83977.35911337842,TASK1
2026-04-28T11:12:00.271+00:00,1100,78189,64421.63907547463,63269.56311101474,143259.88510368884,101102.19283130084,113040.17013790252,97035.896424758,179406.5450914556,83980.30954364652,TASK1
2026-04-28T11:12:00.271+00:00,1100,78190,64420.901467907606,63270.099552881664,143258.07461238795,101102.4610522343,113039.70075126896,97036.96930849185,179406.3439257555,83981.11420644692,TASK1
2026-04-28T11:12:00.271+00:00,1100,78191,64420.70030220751,63270.6359947486,143256.2641210871,101102.4610522343,113041.04185593627,97036.4999218583,179406.88036762242,83981.9188692473,TASK1
2026-04-28T11:12:00.271+00:00,1100,78192,64418.085148106235,63275.19575061748,143254.72185071965,101106.48436623625,113039.49958556886,97042.13256146104,179412.2447862917,83984.8692995154,TASK1
2026-04-28T11:12:00.271+00:00,1100,78193,64421.035578374336,63275.73219248441,143257.13583912083,101107.28902903665,113041.37713210311,97044.81477079567,179414.92699562633,83987.0150669831,TASK1
2026-04-28T11:12:00.271+00:00,1100,78194,64428.00932264439,63275.53102678431,143260.3544903224,101102.2598865342,113045.93688797198,97038.17630269245,179408.55674845658,83981.18126168028,TASK1
2026-04-28T11:12:00.271+00:00,1100,78195,64427.808156944295,63271.84298894918,143259.88510368884,101097.76718589869,113047.27799263931,97032.61071832308,179405.1369315549,83977.76144477862,TASK1
2026-04-28T11:12:00.276+00:00,1100,78196,64427.07054937727,63268.69139298098,143258.34283332143,101096.22491553127,113047.07682693921,97031.06844795565,179405.67337342183,83975.14629067734,TASK1
2026-04-28T11:12:00.276+00:00,1100,78197,64426.86938367717,63269.764276714835,143257.06878388746,101097.29779926513,113044.46167283793,97032.40955262298,179405.47220772173,83973.87224124339,TASK1
2026-04-28T11:12:00.276+00:00,1100,78198,64427.4058255441,63271.105381382156,143256.062955387,101100.78467140015,113042.65118153706,97037.50575035879,179408.6908589233,83973.40285460983,TASK1
2026-04-28T11:12:00.276+00:00,1100,78199,64426.66821797707,63271.37360231562,143256.062955387,101102.39399700094,113042.65118153706,97040.18795969342,179411.37306825793,83969.44659584125,TASK1
2026-04-28T11:12:00.276+00:00,1100,78200,64425.66238947659,63268.22200634742,143254.52068501955,101098.16951729888,113042.91940247052,97037.03636372523,179410.099018824,83967.3678836069,TASK1
2026-04-28T11:12:00.276+00:00,1100,78201,64427.53993601083,63265.87507317962,143254.051298386,101095.82258413108,113043.18762340398,97034.42120962395,179410.099018824,83970.05009294153,TASK1
2026-04-28T11:12:00.606+00:00,1101,78202,64426.265886576875,63265.67390747952,143252.77724895204,101096.09080506454,113043.99228620437,97036.03053522474,179410.63546069092,83969.31248537451,TASK1
2026-04-28T11:12:00.606+00:00,1101,78203,64423.38251154214,63267.819674947226,143250.6985367177,101097.43190973187,113043.99228620437,97038.71274455937,179410.43429499082,83969.31248537451,TASK1
2026-04-28T11:12:00.606+00:00,1101,78204,64423.65073247561,63268.89255868108,143250.4973710176,101096.69430216483,113045.06516993823,97037.43869512541,179412.58006245852,83970.65359004182,TASK1
2026-04-28T11:12:00.606+00:00,1101,78205,64424.187174342536,63267.61850924713,143251.03381288453,101094.88381086396,113044.86400423813,97036.16464569146,179414.9940508597,83969.11131967441,TASK1
2026-04-28T11:12:00.606+00:00,1101,78206,64424.72361620946,63268.69139298098,143251.03381288453,101094.68264516386,113042.51707107032,97036.16464569146,179416.06693459355,83967.30082837353,TASK1
2026-04-28T11:12:00.606+00:00,1101,78207,64426.332941810244,63270.56893951523,143250.83264718443,101094.68264516386,113043.32173387072,97035.96347999136,179415.06110609305,83963.07634867147,TASK1
2026-04-28T11:12:00.606+00:00,1101,78208,64426.86938367717,63268.75844821435,143249.82681868394,101094.21325853029,113046.00394320536,97037.03636372523,179415.32932702653,83961.53407830406,TASK1
2026-04-28T11:12:00.606+00:00,1101,78209,64434.44662504752,63268.289061580785,143251.9055309183,101094.28031376367,113047.00977170584,97039.58446259313,179417.20687356076,83962.40579633781,TASK1
2026-04-28T11:12:00.606+00:00,1101,78210,64433.7090174805,63272.04415464928,143251.16792335126,101094.54853469713,113046.00394320536,97038.04219222571,179417.20687356076,83961.6681887708,TASK1
2026-04-28T11:12:00.606+00:00,1101,78211,64432.97140991347,63270.77010521533,143251.16792335126,101095.08497656406,113047.61326880613,97039.38329689304,179415.12816132643,83953.42039506679,TASK1
2026-04-28T11:12:00.606+00:00,1101,78212,64432.770244213374,63270.0324976483,143249.89387391732,101095.62141843098,113047.8814897396,97042.06550622766,179411.97656535823,83948.92769443127,TASK1
2026-04-28T11:12:00.606+00:00,1101,78213,64434.647790747615,63273.251148849864,143250.6985367177,101097.49896496523,113047.14388217258,97043.40661089499,179411.77539965813,83947.11720313039,TASK1
2026-04-28T11:12:00.606+00:00,1101,78214,64435.45245354801,63271.70887848245,143249.9609291507,101094.61558993049,113047.94854497297,97040.52323586025,179410.23312929072,83945.57493276297,TASK1
2026-04-28T11:12:00.606+00:00,1101,78215,64434.44662504752,63269.361945314646,143247.6139959829,101091.46399396229,113046.40627460554,97037.37163989205,179409.4955217237,83944.30088332902,TASK1
2026-04-28T11:12:00.606+00:00,1101,78216,64434.98306691445,63268.62433774762,143246.87638841584,101090.72638639527,113046.20510890544,97035.82936952464,179408.4896932232,83938.46707802618,TASK1
2026-04-28T11:12:00.606+00:00,1101,78217,64432.36791281318,63267.0820673802,143245.06589711498,101090.99460732873,113045.46750133843,97036.63403232503,179409.02613509013,83935.31548205798,TASK1
2026-04-28T11:12:00.606+00:00,1101,78218,64431.63030524615,63268.69139298098,143243.2554058141,101090.25699976171,113044.46167283793,97036.9022532585,179410.9036816244,83935.58370299145,TASK1
2026-04-28T11:12:00.606+00:00,1101,78219,64431.63030524615,63270.0324976483,143241.98135638013,101090.05583406161,113043.45584433746,97039.58446259313,179413.0494490921,83933.50499075711,TASK1
2026-04-28T11:12:00.606+00:00,1101,78220,64430.3562558122,63269.29489008128,143241.2437488131,101088.78178462766,113043.72406527092,97041.19378819391,179414.65877469286,83933.03560412355,TASK1
2026-04-28T11:12:00.606+00:00,1101,78221,64430.62447674566,63268.020840647325,143239.96969937917,101088.04417706063,113044.26050713783,97040.72440156035,179415.9998793602,83933.30382505701,TASK1
2026-04-28T11:12:00.606+00:00,1101,78222,64431.42913954605,63265.94212841298,143239.23209181213,101086.23368575975,113044.79694900477,97038.645689326,179417.87742589443,83936.25425532511,TASK1
2026-04-28T11:12:00.606+00:00,1101,78223,64434.11134888069,63266.478570279905,143240.8414174129,101086.23368575975,113045.33339087169,97035.22587242434,179418.9503096283,83936.79069719203,TASK1
2026-04-28T11:12:00.606+00:00,1101,78224,64437.86644194918,63267.01501214683,143243.52362674754,101087.30656949361,113046.67449553902,97035.22587242434,179417.40803926086,83931.22511282266,TASK1
2026-04-28T11:12:00.606+00:00,1101,78225,64435.51950878138,63266.27740457981,143242.51779824708,101088.37945322746,113045.93688797198,97036.03053522474,179417.9444811278,83925.92774938676,TASK1
2026-04-28T11:12:00.606+00:00,1101,78226,64437.12883438216,63268.95961391445,143242.0484116135,101088.17828752736,113046.74155077238,97036.56697709166,179417.47509449424,83913.92486261427,TASK1
2026-04-28T11:12:00.606+00:00,1101,78227,64438.73815998294,63272.44648604948,143242.0484116135,101089.78761312815,113046.27216413882,97041.12673296055,179417.0057078607,83904.6041851764,TASK1
2026-04-28T11:12:00.606+00:00,1101,78228,64441.42036931757,63274.05581165026,143243.38951628082,101090.05583406161,113049.22259440692,97042.73605856132,179417.27392879414,83896.89283333931,TASK1
2026-04-28T11:12:00.606+00:00,1101,78229,64440.68276175055,63273.31820408323,143242.92012964727,101087.7089008938,113050.8319200077,97039.8526835266,179417.27392879414,83891.5954699034,TASK1
2026-04-28T11:12:00.606+00:00,1101,78230,64442.694418751526,63272.647651749576,143242.8530744139,101087.7089008938,113050.09431244068,97037.90808175899,179420.55963522906,83893.40596120429,TASK1
2026-04-28T11:12:00.606+00:00,1101,78231,64439.274601849866,63271.64182324908,143240.77436217954,101086.43485145985,113047.21093740594,97038.4445236259,179422.16896082985,83893.67418213775,TASK1
2026-04-28T11:12:00.606+00:00,1101,78232,64437.464110548986,63269.56311101474,143240.03675461252,101085.9654648263,113046.47332983892,97041.12673296055,179423.77828643064,83893.47301643765,TASK1
2026-04-28T11:12:00.606+00:00,1101,78233,64439.341657083234,63267.4843987804,143240.57319647944,101084.42319445887,113047.81443450623,97040.12090446005,179425.11939109795,83894.5459001715,TASK1
2026-04-28T11:12:00.606+00:00,1101,78234,64441.75564548441,63265.94212841298,143239.83558891242,101079.39405195643,113048.88731824009,97034.55532009069,179421.96779512975,83891.12608326985,TASK1
2026-04-28T11:12:00.606+00:00,1101,78235,64442.02386641787,63263.32697431171,143239.0979813454,101074.9013513209,113048.41793160653,97028.72151478785,179420.42552476234,83890.38847570281,TASK1
2026-04-28T11:12:00.606+00:00,1101,78236,64441.82270071777,63264.399858045566,143238.0921528449,101074.43196468735,113047.14388217258,97027.4474653539,179419.68791719532,83890.92491756975,TASK1
2026-04-28T11:12:00.606+00:00,1101,78237,64444.236689118945,63265.47274177942,143238.8968156453,101075.5048484212,113044.79694900477,97029.5932328216,179417.87742589443,83889.38264720234,TASK1
2026-04-28T11:12:00.606+00:00,1101,78238,64445.846014719726,63265.47274177942,143238.6956499452,101075.77306935466,113043.79112050428,97031.73900028932,179418.9503096283,83892.6012984039,TASK1
2026-04-28T11:12:00.606+00:00,1101,78239,64443.76730248539,63268.42317204752,143238.22626331163,101076.04129028814,113045.13222517159,97034.42120962395,179420.02319336214,83893.13774027082,TASK1
2026-04-28T11:12:00.606+00:00,1101,78240,64443.56613678529,63271.37360231562,143237.22043481117,101076.04129028814,113045.93688797198,97035.4940933578,179419.28558579512,83888.91326056878,TASK1
2026-04-28T11:12:00.606+00:00,1101,78241,64442.82852921826,63270.90421568206,143236.48282724412,101076.84595308853,113044.39461760457,97036.2987561582,179417.47509449424,83887.90743206828,TASK1
2026-04-28T11:12:00.606+00:00,1101,78242,64441.82270071777,63269.89838718157,143234.9405568767,101076.64478738843,113043.65701003754,97036.2987561582,179417.0057078607,83887.90743206828,TASK1
2026-04-28T11:12:00.606+00:00,1101,78243,64443.43202631855,63267.55145401376,143233.66650744277,101073.76141235369,113044.46167283793,97033.41538112346,179416.26810029364,83884.48761516662,TASK1
2026-04-28T11:12:00.606+00:00,1101,78244,64445.3095728528,63265.47274177942,143232.3924580088,101070.87803731895,113046.07099843872,97030.26378515527,179417.60920496096,83885.02405703354,TASK1
2026-04-28T11:12:00.606+00:00,1101,78245,64446.11423565319,63266.27740457981,143233.73356267612,101071.9509210528,113046.33921937218,97031.60488982259,179417.87742589443,83881.06779826496,TASK1
2026-04-28T11:12:00.606+00:00,1101,78246,64445.1084071527,63266.27740457981,143231.92307137526,101070.4086506854,113044.26050713783,97031.87311075605,179414.72582992623,83874.96577202866,TASK1
2026-04-28T11:12:00.606+00:00,1101,78247,64443.83435771875,63268.42317204752,143230.38080100782,101069.93926405183,113041.37713210311,97033.7506572903,179413.9882223592,83874.49638539509,TASK1
2026-04-28T11:12:00.606+00:00,1101,78248,64445.17546238607,63268.22200634742,143231.9901266086,101070.2074849853,113041.37713210311,97035.35998289108,179415.59754796,83875.56926912896,TASK1
2026-04-28T11:12:00.606+00:00,1101,78249,64445.980125186456,63268.75844821435,143231.52073997507,101070.47570591875,113042.45001583696,97034.89059625751,179416.13398982692,83875.56926912896,TASK1
2026-04-28T11:12:00.606+00:00,1101,78250,64447.05300892032,63270.6359947486,143231.52073997507,101071.54858965262,113044.59578330467,97035.42703812444,179416.67043169384,83872.95411502768,TASK1
2026-04-28T11:12:00.606+00:00,1101,78251,64450.27166012188,63270.6359947486,143233.13006557582,101071.54858965262,113045.93688797198,97037.30458465869,179417.20687356076,83870.07073999295,TASK1
2026-04-28T11:12:00.606+00:00,1101,78252,64453.22209038998,63271.70887848245,143235.81227491048,101070.0063192852,113046.74155077238,97037.30458465869,179415.93282412682,83867.18736495821,TASK1
2026-04-28T11:12:00.606+00:00,1101,78253,64451.67982002256,63271.70887848245,143234.5382254765,101069.8051535851,113049.15553917355,97038.91391025946,179417.27392879414,83867.45558589167,TASK1
2026-04-28T11:12:00.606+00:00,1101,78254,64452.21626188949,63271.70887848245,143233.8006179095,101070.34159545203,113050.76486477433,97039.71857305986,179420.22435906224,83868.52846962553,TASK1
2026-04-28T11:12:00.606+00:00,1101,78255,64454.29497412383,63273.78759071679,143234.87350164336,101071.41447918589,113053.24590840888,97042.93722426142,179422.70540269677,83867.38853065831,TASK1
2026-04-28T11:12:00.606+00:00,1101,78256,64453.28914562334,63271.172436615525,143233.86767314287,101070.67687161885,113051.43541710799,97044.27832892875,179422.97362363024,83867.92497252523,TASK1
2026-04-28T11:12:00.606+00:00,1101,78257,64453.08797992324,63272.781762216306,143232.32540277546,101071.21331348579,113049.89314674058,97044.5465498622,179423.51006549716,83866.91914402475,TASK1
2026-04-28T11:12:00.606+00:00,1101,78258,64453.62442179018,63278.146180885575,143231.5877952084,101074.70018562081,113049.69198104048,97047.49698013031,179422.23601606322,83860.28067592152,TASK1
2026-04-28T11:12:00.606+00:00,1101,78259,64455.50196832442,63276.87213145162,143230.58196670792,101073.1579152534,113051.83774850819,97048.56986386416,179421.4984084962,83858.7384055541,TASK1
2026-04-28T11:12:00.606+00:00,1101,78260,64458.45239859252,63278.48145705241,143232.72773417563,101074.23079898725,113055.05639970975,97048.1004772306,179422.57129223004,83859.5430683545,TASK1
2026-04-28T11:12:00.606+00:00,1101,78261,64461.67104979408,63274.25697735036,143234.33705977642,101072.42030768638,113056.933946244,97046.82642779665,179423.10773409696,83859.5430683545,TASK1
2026-04-28T11:12:00.606+00:00,1101,78262,64462.475712594474,63274.25697735036,143234.33705977642,101071.14625825243,113056.46455961044,97045.5523783627,179423.37595503044,83859.3419026544,TASK1
2026-04-28T11:12:00.606+00:00,1101,78263,64461.46988409399,63277.20740761846,143232.794789409,101071.9509210528,113055.7269520434,97044.81477079567,179423.6441759639,83856.9949694866,TASK1
2026-04-28T11:12:00.606+00:00,1101,78264,64460.732276526964,63275.66513725104,143231.7889609085,101072.21914198628,113055.7269520434,97045.3512126626,179425.78994343162,83855.9891409861,TASK1
2026-04-28T11:12:00.606+00:00,1101,78265,64460.732276526964,63276.201579117966,143230.51491147457,101071.48153441925,113055.7269520434,97044.34538416211,179427.13104809893,83855.787975286,TASK1
2026-04-28T11:12:00.606+00:00,1101,78266,64461.00049746042,63276.00041341787,143230.045524841,101071.28036871915,113056.79983577726,97044.34538416211,179426.66166146536,83853.70926305166,TASK1
2026-04-28T11:12:00.606+00:00,1101,78267,64462.609823061204,63276.00041341787,143229.8443591409,101070.54276115213,113057.3362776442,97044.88182602904,179428.00276613267,83858.26901892055,TASK1
2026-04-28T11:12:00.606+00:00,1101,78268,64461.87221549418,63277.60973901865,143230.91724287477,101070.54276115213,113058.6773823115,97044.14421846201,179430.1485336004,83862.02411198904,TASK1
2026-04-28T11:12:00.606+00:00,1101,78269,64465.09086669575,63277.14035238509,143231.72190567516,101069.8051535851,113060.55492884576,97044.41243939547,179429.41092603336,83859.40895788776,TASK1
2026-04-28T11:12:00.606+00:00,1101,78270,64465.627308562674,63277.40857331855,143230.98429810812,101070.87803731895,113061.09137071269,97046.55820686318,179428.40509753287,83851.42938511723,TASK1
2026-04-28T11:12:00.606+00:00,1101,78271,64464.35325912872,63276.670965751524,143229.17380680726,101069.87220881847,113059.54910034526,97045.28415742923,179429.74620220021,83854.11159445185,TASK1
2026-04-28T11:12:00.606+00:00,1101,78272,64465.426142862576,63275.933358184506,143228.7044201737,101069.67104311837,113059.0797137117,97046.3570411631,179429.74620220021,83854.11159445185,TASK1
2026-04-28T11:12:00.606+00:00,1101,78273,64469.44945686453,63274.12286688362,143231.11840857487,101067.86055181749,113061.76192304635,97045.88765452952,179429.54503650012,83849.35067288288,TASK1
2026-04-28T11:12:00.606+00:00,1101,78274,64469.98589873146,63275.46397155094,143231.3866295083,101067.65938611739,113064.17591144751,97046.42409639645,179431.15436210088,83843.24864664658,TASK1
2026-04-28T11:12:00.606+00:00,1101,78275,64471.32700339878,63276.80507621826,143232.1912923087,101069.00049078472,113066.05345798176,97048.83808479762,179431.95902490127,83835.5372948095,TASK1
2026-04-28T11:12:00.606+00:00,1101,78276,64473.20454993302,63279.219064619436,143232.45951324218,101070.34159545203,113065.5840713482,97049.91096853148,179434.10479236898,83829.70348950666,TASK1
2026-04-28T11:12:01.013+00:00,1102,78277,64475.08209646727,63280.02372741982,143234.33705977642,101072.21914198628,113066.65695508206,97050.44741039841,179437.85988543747,83823.86968420383,TASK1
2026-04-28T11:12:01.013+00:00,1102,78278,64475.350317400735,63278.74967798587,143233.86767314287,101070.67687161885,113066.92517601552,97048.63691909752,179438.3963273044,83817.49943703407,TASK1
2026-04-28T11:12:01.013+00:00,1102,78279,64476.15498020112,63281.163666387045,143233.66650744277,101072.28619721964,113066.45578938196,97050.78268656523,179441.07853663905,83812.20207359816,TASK1
2026-04-28T11:12:01.013+00:00,1102,78280,64476.15498020112,63284.11409665515,143231.31957427497,101074.16374375389,113065.71818181494,97056.68354710143,179437.39049880393,83799.39452402527,TASK1
2026-04-28T11:12:01.013+00:00,1102,78281,64476.42320113459,63285.186980389,143228.97264110716,101073.69435712033,113062.8348067802,97059.63397736954,179433.16601910186,83785.51409071853,TASK1
2026-04-28T11:12:01.013+00:00,1102,78282,64477.5631401018,63287.66802402354,143231.3866295083,101075.63895888794,113065.71818181494,97062.04796577072,179437.72577497075,83775.45580571363,TASK1
2026-04-28T11:12:01.013+00:00,1102,78283,64480.245349436445,63288.47268682393,143233.26417604258,101075.43779318784,113067.59572834917,97058.62814886904,179439.33510057154,83758.08850027186,TASK1
2026-04-28T11:12:01.013+00:00,1102,78284,64481.58645410376,63287.735079256905,143233.53239697602,101075.23662748774,113070.00971675036,97057.35409943509,179442.55375177308,83743.13518323126,TASK1
2026-04-28T11:12:01.013+00:00,1102,78285,64481.1170674702,63290.14906765808,143231.9901266086,101075.77306935466,113070.00971675036,97058.96342503588,179442.08436513954,83729.52297085797,TASK1
2026-04-28T11:12:01.013+00:00,1102,78286,64480.64768083664,63289.411460091054,143229.91141437428,101075.77306935466,113068.7356673164,97058.96342503588,179440.00565290518,83719.93407248665,TASK1
2026-04-28T11:12:01.013+00:00,1102,78287,64482.25700643742,63287.33274785671,143229.17380680726,101075.57190365458,113066.92517601552,97056.34827093461,179439.53626627164,83714.9049299842,TASK1
2026-04-28T11:12:01.013+00:00,1102,78288,64481.78761980386,63287.13158215661,143228.7044201737,101075.102517021,113067.72983881591,97057.152933735,179438.7986587046,83711.21689214908,TASK1
2026-04-28T11:12:01.013+00:00,1102,78289,64481.78761980386,63286.66219552305,143226.0892660724,101074.09668852053,113068.5345016163,97060.63980587003,179439.06687963806,83705.38308684625,TASK1
2026-04-28T11:12:01.013+00:00,1102,78290,64481.78761980386,63285.65636702256,143226.0892660724,101072.82263908657,113069.3391644167,97058.82931456914,179439.87154243846,83703.30437461191,TASK1
2026-04-28T11:12:01.013+00:00,1102,78291,64485.274491938886,63285.924587956026,143226.35748700588,101071.54858965262,113069.3391644167,97056.75060233481,179439.40215580488,83702.29854611141,TASK1
2026-04-28T11:12:01.013+00:00,1102,78292,64488.493143140455,63286.72925075641,143227.43037073972,101072.353252453,113069.60738535016,97056.54943663471,179439.67037673836,83704.71253451258,TASK1
2026-04-28T11:12:01.013+00:00,1102,78293,64489.29780594084,63287.80213449027,143227.6985916732,101072.62147338648,113068.86977778313,97055.54360813422,179442.62080700646,83710.07695318187,TASK1
2026-04-28T11:12:01.013+00:00,1102,78294,64486.14620997264,63291.289006625295,143224.81521663847,101073.69435712033,113067.05928648225,97055.34244243412,179442.62080700646,83707.46179908059,TASK1
2026-04-28T11:12:01.013+00:00,1102,78295,64484.33571867176,63292.09366942569,143223.00472533758,101075.3036827211,113068.13217021611,97058.82931456914,179441.61497850597,83697.6046797758,TASK1
2026-04-28T11:12:01.013+00:00,1102,78296,64485.94504427255,63287.06452692325,143221.73067590364,101074.29785422061,113068.40039114957,97058.35992793558,179440.34092907203,83693.64842100721,TASK1
2026-04-28T11:12:01.013+00:00,1102,78297,64487.82259080679,63284.18115188851,143221.73067590364,101071.14625825243,113069.47327488342,97055.74477383432,179436.92111217036,83689.1557203717,TASK1
2026-04-28T11:12:01.013+00:00,1102,78298,64488.09081174026,63283.44354432148,143220.72484740315,101069.33576695154,113069.27210918332,97054.73894533383,179435.91528366986,83689.1557203717,TASK1
2026-04-28T11:12:01.013+00:00,1102,78299,64488.895474540644,63284.51642805534,143219.71901890266,101068.86638031798,113068.5345016163,97054.73894533383,179436.45172553678,83688.1498918712,TASK1
2026-04-28T11:12:01.013+00:00,1102,78300,64488.895474540644,63288.003300190365,143219.2496322691,101069.67104311837,113067.79689404927,97055.54360813422,179435.44589703632,83683.92541216915,TASK1
2026-04-28T11:12:01.013+00:00,1102,78301,64488.694308840546,63288.5397420573,143218.2438037686,101068.39699368442,113067.32750741571,97056.88471280153,179434.97651040275,83684.73007496954,TASK1
2026-04-28T11:12:01.013+00:00,1102,78302,64491.912960042115,63286.46102982295,143218.78024563554,101067.92760705085,113068.13217021611,97057.68937560193,179432.36135630147,83681.8466999348,TASK1
2026-04-28T11:12:01.013+00:00,1102,78303,64493.254064709436,63285.99164318939,143219.048466569,101068.46404891778,113068.40039114957,97055.87888430104,179431.35552780097,83682.11492086828,TASK1
2026-04-28T11:12:01.013+00:00,1102,78304,64492.24823620894,63287.33274785671,143216.96975433466,101068.46404891778,113069.20505394996,97052.99550926631,179431.15436210088,83685.33357206984,TASK1
2026-04-28T11:12:01.013+00:00,1102,78305,64491.51062864192,63286.59514028968,143214.62282116685,101067.45822041729,113069.47327488342,97052.99550926631,179430.68497546733,83683.79130170243,TASK1
2026-04-28T11:12:01.013+00:00,1102,78306,64492.85173330924,63285.5893117892,143213.88521359983,101066.4523919168,113068.7356673164,97053.80017206671,179430.48380976723,83685.4006273032,TASK1
2026-04-28T11:12:01.013+00:00,1102,78307,64494.19283797655,63284.85170422217,143213.68404789973,101065.98300528324,113066.92517601552,97054.60483486709,179432.36135630147,83688.61927850476,TASK1
2026-04-28T11:12:01.013+00:00,1102,78308,64492.9187885426,63285.3881460891,143212.67821939924,101067.0558890171,113067.46161788245,97056.21416046788,179436.11644936996,83692.37437157326,TASK1
2026-04-28T11:12:01.013+00:00,1102,78309,64492.9187885426,63286.192808889486,143213.21466126616,101067.0558890171,113069.87560628362,97056.21416046788,179437.18933310383,83693.98369717404,TASK1
2026-04-28T11:12:01.013+00:00,1102,78310,64493.991672276454,63288.60679729066,143213.21466126616,101067.0558890171,113072.02137375133,97055.47655290086,179437.72577497075,83693.51431054049,TASK1
2026-04-28T11:12:01.013+00:00,1102,78311,64494.25989320992,63288.60679729066,143214.55576593347,101067.0558890171,113074.16714121903,97052.32495693266,179439.33510057154,83693.78253147395,TASK1
2026-04-28T11:12:01.013+00:00,1102,78312,64496.942102544555,63287.06452692325,143216.96975433466,101066.58650238354,113075.77646681982,97052.86139879958,179439.60332150498,83695.39185707472,TASK1
2026-04-28T11:12:01.013+00:00,1102,78313,64499.35609094573,63287.600968790175,143218.0426380685,101067.0558890171,113076.84935055368,97053.80017206671,179442.1514203729,83696.73296174205,TASK1
2026-04-28T11:12:01.013+00:00,1102,78314,64500.160753746124,63286.59514028968,143215.96392583416,101066.854723317,113075.0388592528,97052.79434356622,179440.87737093895,83695.4589123081,TASK1
2026-04-28T11:12:01.013+00:00,1102,78315,64499.15492524563,63287.13158215661,143213.61699266636,101066.854723317,113073.76480981885,97053.06256449968,179440.87737093895,83694.4530838076,TASK1
2026-04-28T11:12:01.013+00:00,1102,78316,64500.49602991295,63287.39980309008,143213.14760603278,101063.43490641534,113074.30125168577,97053.33078543314,179440.40798430538,83694.4530838076,TASK1
2026-04-28T11:12:01.013+00:00,1102,78317,64501.568913646806,63289.81379149125,143212.67821939924,101063.97134828227,113075.37413541962,97054.40366916699,179439.67037673836,83695.257746608,TASK1
2026-04-28T11:12:01.013+00:00,1102,78318,64502.3735764472,63289.076183924226,143212.9464403327,101064.50779014919,113077.7881238208,97053.93428253343,179441.01148140567,83699.01283967648,TASK1
2026-04-28T11:12:01.013+00:00,1102,78319,64503.98290204798,63289.076183924226,143212.7452746326,101064.50779014919,113079.66567035504,97055.27538720076,179441.27970233915,83700.08572341035,TASK1
2026-04-28T11:12:01.013+00:00,1102,78320,64506.396890449156,63290.41728859154,143213.81815836646,101065.31245294958,113081.27499595583,97056.88471280153,179437.85988543747,83692.1061506398,TASK1
2026-04-28T11:12:01.013+00:00,1102,78321,64503.513515414415,63290.68550952501,143211.7394461321,101066.11711574998,113079.46450465494,97057.42115466847,179437.85988543747,83695.32480184136,TASK1
2026-04-28T11:12:01.013+00:00,1102,78322,64504.854620081736,63291.22195139193,143211.7394461321,101065.64772911642,113078.45867615446,97057.68937560193,179437.65871973737,83698.27523210946,TASK1
2026-04-28T11:12:01.013+00:00,1102,78323,64508.609713150225,63292.831276992714,143212.00766706557,101064.64190061593,113080.60444362217,97056.95176803491,179435.31178656957,83696.73296174205,TASK1
2026-04-28T11:12:01.013+00:00,1102,78324,64509.41437595062,63293.36771885964,143211.00183856508,101064.17251398237,113080.40327792207,97055.40949766748,179434.57417900255,83695.72713324155,TASK1
2026-04-28T11:12:01.013+00:00,1102,78325,64509.682596884086,63293.36771885964,143209.45956819766,101063.97134828227,113077.51990288733,97055.20833196738,179435.11062086947,83696.80001697541,TASK1
2026-04-28T11:12:01.013+00:00,1102,78326,64508.94498931706,63289.14323915759,143208.18551876373,101062.16085698138,113076.78229532031,97055.20833196738,179434.64123423593,83697.87290070926,TASK1
2026-04-28T11:12:01.013+00:00,1102,78327,64508.207381750035,63287.869189723635,143207.17969026323,101062.42907791484,113077.31873718723,97054.73894533383,179434.44006853583,83697.67173500916,TASK1
2026-04-28T11:12:01.013+00:00,1102,78328,64508.475602683495,63290.01495719134,143206.71030362966,101063.77018258217,113077.58695812071,97056.88471280153,179434.44006853583,83697.67173500916,TASK1
2026-04-28T11:12:01.013+00:00,1102,78329,64508.274436983396,63292.697166525984,143206.2409169961,101063.77018258217,113078.12339998763,97056.88471280153,179434.70828946927,83699.81750247687,TASK1
2026-04-28T11:12:01.013+00:00,1102,78330,64508.81087885032,63290.886675225105,143206.2409169961,101061.69147034783,113077.92223428753,97055.61066336758,179434.50712376917,83698.8116739764,TASK1
2026-04-28T11:12:01.013+00:00,1102,78331,64508.81087885032,63290.14906765808,143205.77153036254,101060.9538627808,113076.64818485358,97056.68354710143,179434.30595806908,83699.07989490985,TASK1
2026-04-28T11:12:01.013+00:00,1102,78332,64510.68842538457,63290.41728859154,143205.03392279553,101061.49030464773,113077.72106858743,97055.94593953442,179431.95902490127,83696.46474080857,TASK1
2026-04-28T11:12:01.013+00:00,1102,78333,64509.14615501715,63291.75839325886,143203.4916524281,101063.9042930489,113077.72106858743,97057.28704420173,179431.48963826773,83693.04492390691,TASK1
2026-04-28T11:12:01.013+00:00,1102,78334,64513.437689952574,63294.440602593495,143204.76570186205,101064.23956921573,113081.94554828948,97058.69520410242,179434.64123423593,83683.92541216915,TASK1
2026-04-28T11:12:01.013+00:00,1102,78335,64515.58345742028,63294.97704446042,143204.76570186205,101064.50779014919,113083.2866529568,97058.69520410242,179437.32344357055,83670.8496416628,TASK1
2026-04-28T11:12:01.013+00:00,1102,78336,64516.656341154136,63293.97121595994,143204.29631522848,101064.77601108266,113084.35953669067,97060.57275063667,179438.3963273044,83661.52896422494,TASK1
2026-04-28T11:12:01.013+00:00,1102,78337,64520.67965515609,63293.97121595994,143204.56453616195,101064.57484538257,113084.62775762413,97059.83514306963,179436.85405693698,83652.20828678708,TASK1
2026-04-28T11:12:01.013+00:00,1102,78338,64519.40560572214,63295.58054156072,143203.82692859494,101065.91595004988,113083.08548725671,97061.44446867042,179436.38467030344,83649.32491175234,TASK1
2026-04-28T11:12:01.013+00:00,1102,78339,64515.44934695355,63298.79919276228,143201.21177449365,101066.98883378373,113082.34787968968,97063.59023613813,179436.38467030344,83649.12374605224,TASK1
2026-04-28T11:12:01.013+00:00,1102,78340,64515.24818125345,63299.87207649613,143201.21177449365,101066.25122621671,113082.88432155662,97062.58440763764,179437.45755403728,83647.84969661829,TASK1
2026-04-28T11:12:01.013+00:00,1102,78341,64519.00327432195,63297.52514332833,143202.82110009444,101064.97717678276,113083.688984357,97061.04213727023,179437.72577497075,83643.35699598277,TASK1
2026-04-28T11:12:01.013+00:00,1102,78342,64524.635913924685,63296.7875357613,143204.16220476176,101062.63024361494,113085.8347518247,97061.04213727023,179435.6470627364,83636.98674881301,TASK1
2026-04-28T11:12:01.013+00:00,1102,78343,64521.752538889945,63298.39686136209,143201.54705066048,101062.63024361494,113086.90763555857,97060.84097157013,179437.25638833718,83636.78558311291,TASK1
2026-04-28T11:12:01.013+00:00,1102,78344,64521.28315225639,63298.19569566199,143200.27300122654,101062.42907791484,113087.98051929243,97060.84097157013,179437.79283020413,83633.90220807817,TASK1
2026-04-28T11:12:01.013+00:00,1102,78345,64522.08781505678,63295.31232062725,143198.46250992565,101061.15502848089,113088.24874022588,97062.4502971709,179435.71411796976,83630.21417024305,TASK1
2026-04-28T11:12:01.013+00:00,1102,78346,64522.08781505678,63294.574713060225,143196.65201862477,101060.9538627808,113086.438248925,97064.32784370515,179434.70828946927,83628.40367894217,TASK1
2026-04-28T11:12:01.013+00:00,1102,78347,64522.08781505678,63296.18403866101,143195.91441105775,101062.02674651466,113085.70064135798,97064.12667800505,179435.24473133622,83626.32496670782,TASK1
2026-04-28T11:12:01.013+00:00,1102,78348,64523.428919724094,63295.17821016052,143195.71324535765,101058.87515054646,113086.2370832249,97059.36575643608,179433.70246096878,83621.8322660723,TASK1
2026-04-28T11:12:01.013+00:00,1102,78349,64523.96536159102,63295.44643109399,143194.17097499024,101057.06465924557,113086.2370832249,97059.36575643608,179433.50129526868,83618.41244917065,TASK1
2026-04-28T11:12:01.013+00:00,1102,78350,64524.23358252449,63293.63593979311,143192.62870462282,101057.33288017903,113086.50530415837,97060.43864016993,179433.50129526868,83615.79729506938,TASK1
2026-04-28T11:12:01.013+00:00,1102,78351,64523.49597495746,63292.89833222608,143191.62287612233,101056.59527261202,113086.0359175248,97059.7010326029,179433.03190863514,83615.32790843582,TASK1
2026-04-28T11:12:01.013+00:00,1102,78352,64523.49597495746,63294.2394368934,143191.15348948876,101057.93637727933,113084.49364715739,97059.96925353637,179430.41675453386,83612.98097526802,TASK1
2026-04-28T11:12:01.013+00:00,1102,78353,64523.76419589092,63293.50182932637,143190.41588192174,101057.73521157923,113084.76186809085,97057.89054130203,179429.14270509992,83612.24336770098,TASK1
2026-04-28T11:12:01.013+00:00,1102,78354,64522.49014645697,63292.764221759346,143188.60539062085,101055.92472027836,113083.75603959037,97055.81182906768,179426.52755099864,83612.24336770098,TASK1
2026-04-28T11:12:01.013+00:00,1102,78355,64523.294809257364,63294.10532642667,143186.79489932,101054.11422897747,113084.02426052383,97054.26955870027,179423.37595503044,83607.75066706547,TASK1
2026-04-28T11:12:01.013+00:00,1102,78356,64523.294809257364,63291.75839325886,143186.79489932,101052.84017954352,113084.56070239075,97053.53195113323,179421.56546372955,83604.06262923034,TASK1
2026-04-28T11:12:01.013+00:00,1102,78357,64524.36769299122,63292.29483512579,143185.52084988603,101052.1025719765,113083.2866529568,97054.06839300017,179418.68208869483,83604.59907109727,TASK1
2026-04-28T11:12:01.013+00:00,1102,78358,64524.904134858145,63291.020785691835,143183.71035858514,101051.9014062764,113082.28082445632,97054.06839300017,179418.68208869483,83608.08594323229,TASK1
2026-04-28T11:12:01.013+00:00,1102,78359,64526.513460458926,63293.23360839291,143184.8502975524,101052.43784814332,113084.42659192403,97052.99550926631,179421.63251896293,83608.82355079932,TASK1
2026-04-28T11:12:01.013+00:00,1102,78360,64526.04407382537,63293.50182932637,143185.11851848583,101052.23668244322,113083.42076342354,97050.91679703197,179423.51006549716,83609.89643453318,TASK1
2026-04-28T11:12:01.013+00:00,1102,78361,64526.31229475883,63290.08201242471,143184.11268998534,101050.96263300927,113081.87849305612,97050.71563133187,179424.0465073641,83613.3833066682,TASK1
2026-04-28T11:12:01.013+00:00,1102,78362,64527.11695755922,63291.42311709203,143183.37508241832,101051.4990748762,113081.87849305612,97050.71563133187,179423.57712073054,83616.3337369363,TASK1
2026-04-28T11:12:01.013+00:00,1102,78363,64526.111129058736,63293.56888455974,143181.296370184,101051.76729580967,113080.60444362217,97051.78851506572,179425.18644633132,83621.69815560558,TASK1
2026-04-28T11:12:01.013+00:00,1102,78364,64525.64174242517,63292.56305605925,143178.41299514924,101049.9568045088,113080.40327792207,97052.59317786612,179425.99110913172,83625.72146960754,TASK1
2026-04-28T11:12:01.013+00:00,1102,78365,64527.51928895942,63292.09366942569,143180.82698355042,101049.9568045088,113081.20794072247,97052.12379123256,179425.78994343162,83623.64275737319,TASK1
2026-04-28T11:12:01.013+00:00,1102,78366,64526.78168139239,63292.09366942569,143182.4363091512,101049.9568045088,113082.54904538978,97051.654404599,179426.594606232,83623.17337073963,TASK1
2026-04-28T11:12:01.013+00:00,1102,78367,64527.31812325932,63291.62428279213,143181.16225971724,101050.76146730917,113081.81143782275,97052.45906739938,179427.93571089933,83625.5873591408,TASK1
2026-04-28T11:12:01.013+00:00,1102,78368,64528.122786059714,63290.886675225105,143180.42465215022,101050.29208067562,113081.61027212266,97052.99550926631,179429.81325743356,83630.68355687661,TASK1
2026-04-28T11:12:01.013+00:00,1102,78369,64527.38517849269,63290.886675225105,143180.22348645012,101049.5544731086,113082.41493492304,97052.52612263276,179431.42258303435,83632.82932434432,TASK1
2026-04-28T11:12:01.013+00:00,1102,78370,64527.38517849269,63290.68550952501,143178.94943701618,101048.28042367465,113082.41493492304,97053.06256449968,179431.95902490127,83632.35993771076,TASK1
2026-04-28T11:12:01.013+00:00,1102,78371,64527.65339942615,63294.440602593495,143177.1389457153,101049.3533074085,113080.33622268871,97055.74477383432,179429.61209173346,83631.8905510772,TASK1
2026-04-28T11:12:01.013+00:00,1102,78372,64530.06738782732,63297.659253795064,143177.1389457153,101050.69441207581,113080.60444362217,97053.93428253343,179426.72871669874,83628.47073417554,TASK1
2026-04-28T11:12:01.013+00:00,1102,78373,64533.82248089581,63293.70299502647,143179.284713183,101047.54281610761,113081.94554828948,97048.36869816406,179426.72871669874,83633.03049004442,TASK1
2026-04-28T11:12:01.013+00:00,1102,78374,64534.09070182928,63292.42894559252,143180.0893759834,101045.1958829398,113082.48199015642,97047.63109059705,179425.99110913172,83630.95177781007,TASK1
2026-04-28T11:12:01.013+00:00,1102,78375,64529.598001193765,63294.0382711933,143177.20600094864,101044.45827537279,113081.47616165593,97050.04507899821,179424.4488387643,83626.1908562411,TASK1
2026-04-28T11:12:01.013+00:00,1102,78376,64533.35309426225,63294.574713060225,143175.66373058123,101045.7993800401,113078.86100755466,97051.92262553246,179424.71705969775,83620.62527187173,TASK1
2026-04-28T11:12:01.331+00:00,1103,78377,64532.883707628695,63295.37937586062,143175.46256488113,101047.67692657435,113076.51407438684,97052.19084646592,179427.93571089933,83615.32790843582,TASK1
2026-04-28T11:12:01.331+00:00,1103,78378,64532.41432099513,63294.10532642667,143175.26139918104,101046.93931900732,113075.50824588636,97052.19084646592,179430.34969930048,83612.44453340108,TASK1
2026-04-28T11:12:01.332+00:00,1103,78379,64535.36475126323,63294.10532642667,143176.3342829149,101046.2017114403,113077.92223428753,97053.53195113323,179429.07564986654,83606.61072809824,TASK1
2026-04-28T11:12:01.332+00:00,1103,78380,64535.90119313016,63295.982872960914,143176.1331172148,101046.0005457402,113080.06800175524,97053.80017206671,179426.9969376322,83602.92269026312,TASK1
2026-04-28T11:12:01.332+00:00,1103,78381,64537.51051873094,63295.982872960914,143175.9319515147,101046.26876667366,113080.87266455563,97053.06256449968,179425.45466726477,83603.45913213005,TASK1
2026-04-28T11:12:01.332+00:00,1103,78382,64536.50469023045,63292.831276992714,143174.12146021382,101043.38539163893,113078.52573138782,97051.2520731988,179421.76662942965,83604.26379493043,TASK1
2026-04-28T11:12:01.332+00:00,1103,78383,64537.30935303084,63292.09366942569,143173.3838526468,101040.77023753765,113078.79395232128,97049.44158189792,179419.95613812876,83603.79440829688,TASK1
2026-04-28T11:12:01.332+00:00,1103,78384,64536.83996639728,63292.09366942569,143171.57336134592,101039.4961881037,113078.05634475427,97049.97802376485,179419.21853056175,83606.74483856498,TASK1
2026-04-28T11:12:01.332+00:00,1103,78385,64536.102358830256,63294.50765782686,143169.2264281781,101040.56907183756,113078.86100755466,97051.31912843217,179418.7491439282,83606.00723099796,TASK1
2026-04-28T11:12:01.332+00:00,1103,78386,64538.1810710646,63296.049928194276,143169.49464911158,101042.0442869716,113080.7385540889,97052.79434356622,179421.96779512975,83613.04803050138,TASK1
2026-04-28T11:12:01.332+00:00,1103,78387,64538.98573386499,63295.58054156072,143169.49464911158,101039.6973538038,113082.07965875622,97053.06256449968,179425.18644633132,83622.4357631726,TASK1
2026-04-28T11:12:01.332+00:00,1103,78388,64541.93616413309,63294.84293399369,143169.49464911158,101039.4961881037,113083.42076342354,97054.94011103392,179425.45466726477,83626.45907717456,TASK1
2026-04-28T11:12:01.332+00:00,1103,78389,64543.54548973387,63294.64176829359,143168.75704154457,101040.3008509041,113082.95137678998,97057.35409943509,179423.91239689736,83625.72146960754,TASK1
2026-04-28T11:12:01.332+00:00,1103,78390,64542.00321936646,63296.7875357613,143166.6783293102,101041.10551370449,113080.87266455563,97056.61649186807,179424.4488387643,83628.40367894217,TASK1
2026-04-28T11:12:01.332+00:00,1103,78391,64541.533832732894,63297.592198561695,143166.6783293102,101040.63612707093,113082.48199015642,97054.53777963373,179423.17478933034,83629.47656267602,TASK1
2026-04-28T11:12:01.332+00:00,1103,78392,64543.94782113407,63296.049928194276,143166.94655024368,101038.55741483658,113084.09131575719,97053.53195113323,179422.43718176332,83634.57276041183,TASK1
2026-04-28T11:12:01.332+00:00,1103,78393,64543.94782113407,63297.3910328616,143165.40427987627,101039.36207763698,113083.62192912363,97055.94593953442,179422.97362363024,83638.59607441378,TASK1
2026-04-28T11:12:01.332+00:00,1103,78394,64541.60088796626,63297.3910328616,143162.5209048415,101039.36207763698,113083.15254249008,97057.55526513519,179424.0465073641,83642.35116748228,TASK1
2026-04-28T11:12:01.332+00:00,1103,78395,64542.13732983319,63294.50765782686,143161.51507634102,101038.62447006995,113083.15254249008,97057.08587850163,179426.46049576526,83643.96049308307,TASK1
2026-04-28T11:12:01.332+00:00,1103,78396,64543.21021356704,63294.50765782686,143161.51507634102,101038.62447006995,113084.22542622393,97058.96342503588,179425.99110913172,83644.76515588345,TASK1
2026-04-28T11:12:01.332+00:00,1103,78397,64545.08776010129,63296.65342529457,143161.31391064092,101039.96557473726,113082.68315585652,97061.64563437052,179425.52172249815,83646.91092335117,TASK1
2026-04-28T11:12:01.332+00:00,1103,78398,64547.50174850246,63300.67673929653,143162.3867943748,101042.11134220498,113084.02426052383,97063.79140183823,179426.32638529854,83644.02754831643,TASK1
2026-04-28T11:12:01.332+00:00,1103,78399,64548.03819036939,63299.9391317295,143161.11274494085,101041.10551370449,113085.36536519114,97062.51735240428,179426.594606232,83646.4415367176,TASK1
2026-04-28T11:12:01.332+00:00,1103,78400,64547.56880373583,63298.39686136209,143160.10691644036,101038.75858053668,113086.438248925,97059.902198303,179427.93571089933,83652.3423972538,TASK1
2026-04-28T11:12:01.332+00:00,1103,78401,64547.837024669294,63297.92747472852,143158.29642513947,101037.75275203619,113086.438248925,97060.43864016993,179428.47215276625,83654.21994378805,TASK1
2026-04-28T11:12:01.332+00:00,1103,78402,64547.635858969195,63294.77587876032,143157.0223757055,101037.75275203619,113085.16419949105,97061.24330297032,179429.27681556664,83655.56104845536,TASK1
2026-04-28T11:12:01.332+00:00,1103,78403,64548.17230083612,63294.574713060225,143155.74832627157,101037.01514446917,113085.70064135798,97060.77391633677,179431.42258303435,83659.58436245732,TASK1
2026-04-28T11:12:01.332+00:00,1103,78404,64547.16647233563,63296.72048052794,143155.278939638,101038.08802820303,113087.57818789223,97061.84680007062,179433.56835050206,83661.1936880581,TASK1
2026-04-28T11:12:01.332+00:00,1103,78405,64546.69708570207,63297.52514332833,143155.278939638,101038.8926910034,113089.72395535994,97062.91968380447,179437.32344357055,83664.1441183262,TASK1
2026-04-28T11:12:01.332+00:00,1103,78406,64550.72039970403,63295.982872960914,143155.54716057147,101036.81397876907,113092.1379437611,97062.91968380447,179435.51295226967,83664.68056019313,TASK1
2026-04-28T11:12:01.332+00:00,1103,78407,64553.67082997213,63294.172381660035,143154.2731111375,101034.46704560127,113090.86389432715,97061.91385530398,179432.09313536802,83662.6018479588,TASK1
2026-04-28T11:12:01.332+00:00,1103,78408,64552.9332224051,63293.16655315954,143152.7308407701,101033.9976589677,113091.66855712754,97061.17624773695,179432.62957723494,83666.62516196075,TASK1
2026-04-28T11:12:01.332+00:00,1103,78409,64554.00610613896,63295.84876249418,143150.9203494692,101034.53410083463,113090.39450769359,97061.98091053734,179431.35552780097,83667.16160382767,TASK1
2026-04-28T11:12:01.332+00:00,1103,78410,64551.390952037684,63295.84876249418,143149.10985816835,101032.72360953374,113089.3886791931,97061.98091053734,179430.61792023396,83672.52602249694,TASK1
2026-04-28T11:12:01.332+00:00,1103,78411,64550.921565404125,63292.16072465906,143148.64047153477,101031.71778103327,113092.3391094612,97059.63397736954,179431.69080396782,83680.30442956739,TASK1
2026-04-28T11:12:01.332+00:00,1103,78412,64553.60377473876,63292.16072465906,143150.51801806904,101031.98600196672,113096.0942025297,97058.09170700212,179431.95902490127,83683.79130170243,TASK1
2026-04-28T11:12:01.332+00:00,1103,78413,64553.60377473876,63294.306492126765,143150.51801806904,101033.86354850097,113096.89886533009,97060.50569540329,179433.56835050206,83685.66884823666,TASK1
2026-04-28T11:12:01.332+00:00,1103,78414,64553.40260903866,63296.45225959447,143148.70752676815,101034.93643223483,113093.74726936189,97062.91968380447,179435.17767610284,83691.56970877286,TASK1
2026-04-28T11:12:01.332+00:00,1103,78415,64554.207271839055,63295.44643109399,143146.89703546726,101033.3941618674,113093.54610366179,97063.18790473793,179436.25055983668,83695.0565809079,TASK1
2026-04-28T11:12:01.332+00:00,1103,78416,64552.665001471636,63293.63593979311,143146.15942790025,101031.58367056653,113094.8872083291,97063.18790473793,179436.25055983668,83699.34811584331,TASK1
2026-04-28T11:12:01.332+00:00,1103,78417,64554.74371370598,63296.38520436111,143148.10402966785,101031.0472286996,113096.83181009672,97064.86428557208,179440.20681860528,83707.59590954732,TASK1
2026-04-28T11:12:01.332+00:00,1103,78418,64555.54837650637,63294.574713060225,143147.09820116736,101029.77317926564,113096.83181009672,97063.85845707159,179441.81614420607,83713.76499101699,TASK1
2026-04-28T11:12:01.332+00:00,1103,78419,64555.816597439836,63295.647596794086,143146.36059360034,101030.57784206604,113096.36242346316,97064.12667800505,179442.88902793993,83719.93407248665,TASK1
2026-04-28T11:12:01.332+00:00,1103,78420,64557.15770210716,63299.402689862574,143147.96991920113,101032.18716766682,113096.89886533009,97064.66311987198,179443.6936907403,83721.27517715398,TASK1
2026-04-28T11:12:01.332+00:00,1103,78421,64558.76702770794,63299.402689862574,143147.76875350103,101030.91311823287,113094.82015309574,97063.12084950457,179440.27387383865,83720.26934865348,TASK1
2026-04-28T11:12:01.332+00:00,1103,78422,64559.571690508325,63299.9391317295,143145.95826220015,101030.17551066584,113092.47321992794,97063.38907043803,179440.07270813856,83727.24309292354,TASK1
2026-04-28T11:12:01.332+00:00,1103,78423,64561.71745797604,63300.743794529895,143145.95826220015,101030.71195253277,113093.81432459525,97064.73017510535,179440.87737093895,83730.4617441251,TASK1
2026-04-28T11:12:01.332+00:00,1103,78424,64562.79034170989,63302.353120130676,143145.75709650005,101030.51078683267,113094.61898739565,97065.26661697228,179439.60332150498,83730.99818599202,TASK1
2026-04-28T11:12:01.332+00:00,1103,78425,64560.71162947555,63303.15778293106,143144.48304706608,101030.51078683267,113093.88137982861,97063.72434660485,179438.5974930045,83732.33929065935,TASK1
2026-04-28T11:12:01.332+00:00,1103,78426,64560.51046377545,63303.42600386453,143144.01366043254,101031.31544963307,113094.14960076209,97063.99256753833,179437.59166450403,83731.33346215886,TASK1
2026-04-28T11:12:01.332+00:00,1103,78427,64563.19267311009,63301.61551256365,143144.01366043254,101030.8460629995,113095.22248449594,97063.79140183823,179436.31761507006,83730.8640755253,TASK1
2026-04-28T11:12:01.332+00:00,1103,78428,64565.07021964433,63299.00035846238,143143.2760528655,101028.76735076516,113094.48487692891,97061.44446867042,179435.31178656957,83735.69205232765,TASK1
2026-04-28T11:12:01.332+00:00,1103,78429,64565.874882444725,63300.877904996625,143141.73378249808,101027.76152226467,113091.86972282764,97060.97508203685,179432.42841153484,83733.34511915983,TASK1
2026-04-28T11:12:01.332+00:00,1103,78430,64564.86905394423,63302.219009663946,143140.45973306414,101027.56035656457,113091.66855712754,97062.31618670418,179434.03773713563,83739.24597969603,TASK1
2026-04-28T11:12:01.332+00:00,1103,78431,64565.40549581116,63304.09655619819,143141.26439586453,101027.56035656457,113093.00966179486,97062.11502100408,179434.57417900255,83744.87861929878,TASK1
2026-04-28T11:12:01.332+00:00,1103,78432,64569.160588879655,63302.28606489731,143142.06905866493,101026.28630713062,113095.42365019604,97059.49986690281,179432.76368770166,83745.95150303263,TASK1
2026-04-28T11:12:01.332+00:00,1103,78433,64569.428809813115,63299.13446892911,143141.86789296483,101023.40293209588,113096.22831299643,97057.152933735,179433.03190863514,83747.56082863342,TASK1
2026-04-28T11:12:01.332+00:00,1103,78434,64568.959423179556,63298.12864042862,143141.66672726473,101022.12888266193,113095.75892636286,97056.41532616797,179432.02608013464,83748.09727050034,TASK1
2026-04-28T11:12:01.332+00:00,1103,78435,64568.22181561253,63297.92747472852,143140.66089876424,101022.12888266193,113095.75892636286,97058.02465176876,179433.63540573543,83752.92524730269,TASK1
2026-04-28T11:12:01.332+00:00,1103,78436,64567.484208045506,63299.268579395844,143139.11862839683,101022.66532452886,113095.02131879584,97060.97508203685,179434.44006853583,83757.48500317156,TASK1
2026-04-28T11:12:01.332+00:00,1103,78437,64568.2888708459,63300.07324219623,143138.38102082978,101023.46998732926,113094.28371122881,97061.77974483724,179433.97068190225,83761.24009624006,TASK1
2026-04-28T11:12:01.332+00:00,1103,78438,64571.50752204746,63303.76128003136,143140.3256225974,101024.34170536301,113096.76475486335,97060.37158493657,179436.38467030344,83766.80568060942,TASK1
2026-04-28T11:12:01.332+00:00,1103,78439,64572.580405781315,63302.219009663946,143140.59384353086,101024.34170536301,113097.83763859721,97060.17041923647,179437.72577497075,83769.75611087753,TASK1
2026-04-28T11:12:01.332+00:00,1103,78440,64573.38506858171,63302.219009663946,143139.58801503037,101024.87814722993,113096.83181009672,97061.77974483724,179440.9444261723,83777.26629701452,TASK1
2026-04-28T11:12:01.332+00:00,1103,78441,64574.189731382095,63305.16943993204,143139.85623596385,101028.09679843149,113097.10003103019,97064.9983960388,179443.8948564404,83780.21672728262,TASK1
2026-04-28T11:12:01.332+00:00,1103,78442,64575.53083604942,63304.163611431555,143139.65507026375,101027.62741179793,113098.17291476404,97063.99256753833,179443.6936907403,83782.63071568379,TASK1
2026-04-28T11:12:01.332+00:00,1103,78443,64576.33549884981,63303.96244573146,143139.45390456365,101026.08514143052,113098.17291476404,97062.71851810438,179443.6936907403,83787.45869248614,TASK1
2026-04-28T11:12:01.332+00:00,1103,78444,64576.13433314971,63305.839992265704,143138.98451793008,101026.35336236398,113098.70935663096,97062.51735240428,179443.22430410676,83786.98930585258,TASK1
2026-04-28T11:12:01.332+00:00,1103,78445,64573.51917904844,63309.86330626766,143135.29648009496,101026.62158329746,113096.63064439662,97063.32201520467,179444.02896690715,83789.40329425375,TASK1
2026-04-28T11:12:01.332+00:00,1103,78446,64575.664946516146,63308.05281496678,143134.55887252794,101026.88980423092,113097.43530719701,97063.59023613813,179444.56540877407,83791.81728265491,TASK1
2026-04-28T11:12:01.332+00:00,1103,78447,64578.07893491732,63304.364777131654,143136.16819812873,101024.81109199657,113100.65395839857,97060.97508203685,179446.17473437486,83796.10881759034,TASK1
2026-04-28T11:12:01.332+00:00,1103,78448,64577.60954828376,63305.16943993204,143135.43059056168,101024.60992629647,113101.45862119897,97060.23747446983,179448.0522809091,83804.69188746117,TASK1
2026-04-28T11:12:01.332+00:00,1103,78449,64578.41421108415,63307.04698646629,143135.22942486158,101026.48747283072,113102.53150493282,97061.31035820369,179447.58289427555,83805.2283293281,TASK1
2026-04-28T11:12:01.332+00:00,1103,78450,64580.828199485324,63306.0411579658,143137.64341326276,101026.28630713062,113105.48193520092,97062.38324193754,179445.23596110774,83799.1263030918,TASK1
2026-04-28T11:12:01.332+00:00,1103,78451,64582.437525086105,63305.30355039878,143139.25273886355,101024.47581582973,113106.28659800132,97062.38324193754,179445.03479540764,83800.73562869258,TASK1
2026-04-28T11:12:01.332+00:00,1103,78452,64585.38795535421,63304.56594283175,143139.25273886355,101024.27465012964,113105.5489904343,97062.91968380447,179445.83945820804,83805.83182642839,TASK1
2026-04-28T11:12:01.332+00:00,1103,78453,64589.41126935616,63308.58925683371,143137.71046849614,101024.81109199657,113105.3478247342,97062.4502971709,179442.41964130636,83805.6306607283,TASK1
2026-04-28T11:12:01.332+00:00,1103,78454,64587.86899898874,63312.61257083566,143134.55887252794,101024.81109199657,113104.87843810063,97062.98673903783,179438.9998244047,83805.16127409473,TASK1
2026-04-28T11:12:01.332+00:00,1103,78455,64584.18096115362,63311.60674233517,143134.08948589436,101025.07931293003,113104.87843810063,97064.05962277169,179441.41381280587,83809.98925089708,TASK1
2026-04-28T11:12:01.332+00:00,1103,78456,64584.71740302055,63311.60674233517,143133.35187832735,101024.87814722993,113104.14083053361,97065.13250650554,179440.9444261723,83811.59857649787,TASK1
2026-04-28T11:12:01.332+00:00,1103,78457,64586.32672862133,63310.33269290122,143132.34604982685,101023.87231872945,113102.86678109966,97065.400727439,179439.67037673836,83813.20790209864,TASK1
2026-04-28T11:12:01.332+00:00,1103,78458,64585.857341987765,63310.13152720112,143131.34022132636,101022.86649022896,113102.12917353262,97064.66311987198,179441.5479232726,83818.30409983445,TASK1
2026-04-28T11:12:01.332+00:00,1103,78459,64586.930225721626,63310.66796906805,143132.41310506023,101021.59244079501,113104.00672006687,97063.38907043803,179440.27387383865,83820.71808823563,TASK1
2026-04-28T11:12:01.332+00:00,1103,78460,64588.00310945548,63309.393919634094,143131.40727655974,101020.31839136106,113104.00672006687,97062.651462871,179438.73160347124,83823.9367394372,TASK1
2026-04-28T11:12:01.332+00:00,1103,78461,64586.46083908806,63308.924533000536,143130.13322712577,101020.11722566096,113103.26911249985,97063.99256753833,179438.9998244047,83829.56937903994,TASK1
2026-04-28T11:12:01.332+00:00,1103,78462,64591.55703682387,63309.46097486746,143132.81543646043,101020.38544659442,113106.21954276795,97063.2549599713,179440.34092907203,83836.54312330998,TASK1
2026-04-28T11:12:01.332+00:00,1103,78463,64597.256731659974,63311.27146616834,143136.23525336207,101021.65949602837,113110.6451881701,97065.87011407258,179442.352586073,83842.51103907956,TASK1
2026-04-28T11:12:01.332+00:00,1103,78464,64595.714461292555,63310.53385860132,143133.88832019427,101019.8490047275,113110.44402247001,97066.4065559395,179441.3467575725,83845.72969028112,TASK1
2026-04-28T11:12:01.332+00:00,1103,78465,64592.56286532436,63312.94784700249,143132.0778288934,101019.8490047275,113109.70641490298,97068.28410247374,179441.88319943944,83849.4847833496,TASK1
2026-04-28T11:12:01.332+00:00,1103,78466,64593.635749058216,63316.43471913752,143131.07200039292,101019.6478390274,113109.70641490298,97068.5523234072,179441.68203373934,83852.97165548464,TASK1
2026-04-28T11:12:01.332+00:00,1103,78467,64594.17219092514,63312.74668130239,143130.60261375934,101017.30090585959,113111.31574050376,97066.2053902394,179442.48669653974,83858.3360741539,TASK1
2026-04-28T11:12:01.332+00:00,1103,78468,64594.4404118586,63311.47263186844,143130.13322712577,101016.56329829256,113112.38862423762,97066.47361117286,179442.28553083964,83859.40895788776,TASK1
2026-04-28T11:12:01.332+00:00,1103,78469,64597.65906306017,63309.93036150102,143129.39561955875,101017.36796109295,113111.91923760406,97069.69226237443,179442.28553083964,83862.35938815586,TASK1
2026-04-28T11:12:01.332+00:00,1103,78470,64596.65323455968,63310.46680336795,143128.65801199173,101018.44084482681,113110.6451881701,97072.64269264253,179443.8948564404,83867.72380682515,TASK1
2026-04-28T11:12:01.332+00:00,1103,78471,64599.33544389432,63313.68545456952,143128.9262329252,101019.2455076272,113110.91340910357,97070.83220134165,179442.08436513954,83868.26024869207,TASK1
2026-04-28T11:12:01.332+00:00,1103,78472,64602.017653228955,63314.75833830337,143129.73089572557,101019.51372856066,113111.18163003703,97069.5581519077,179440.81031570557,83873.35644642788,TASK1
2026-04-28T11:12:01.332+00:00,1103,78473,64603.358757896276,63316.09944297069,143129.5297300255,101017.43501632632,113111.18163003703,97069.82637284115,179439.53626627164,83877.37976042983,TASK1
2026-04-28T11:12:01.332+00:00,1103,78474,64602.62115032925,63318.781652305326,143127.71923872462,101017.23385062622,113110.17580153653,97071.43569844194,179438.26221683767,83878.18442323022,TASK1
2026-04-28T11:12:01.332+00:00,1103,78475,64601.3471008953,63320.39097790611,143126.71341022413,101018.03851342661,113110.44402247001,97072.24036124234,179439.87154243846,83886.23105123414,TASK1
2026-04-28T11:12:01.332+00:00,1103,78476,64601.883542762225,63317.77582380483,143125.9758026571,101017.83734772651,113113.39445273811,97072.77680310926,179439.87154243846,83889.98614430263,TASK1
2026-04-28T11:12:01.655+00:00,1104,78477,64602.41998462915,63316.76999530435,143125.23819509006,101017.63618202641,113113.66267367157,97074.38612871004,179439.13393487144,83892.66835363726,TASK1
2026-04-28T11:12:01.655+00:00,1104,78478,64606.44329863111,63316.76999530435,143127.11574162432,101017.43501632632,113114.19911553849,97075.4590124439,179440.47503953875,83899.37387697386,TASK1
2026-04-28T11:12:01.655+00:00,1104,78479,64605.70569106408,63317.8428790382,143128.45684629164,101017.23385062622,113114.73555740542,97075.72723337736,179441.5479232726,83906.07940031045,TASK1
2026-04-28T11:12:01.655+00:00,1104,78480,64603.358757896276,63318.915762772056,143126.64635499075,101017.77029249315,113112.65684517108,97076.53189617775,179440.27387383865,83904.8053508765,TASK1
2026-04-28T11:12:01.655+00:00,1104,78481,64604.69986256359,63318.915762772056,143125.3723055568,101017.77029249315,113111.65101667058,97075.2578467438,179438.9998244047,83908.02400207806,TASK1
2026-04-28T11:12:01.655+00:00,1104,78482,64606.845630031305,63317.641713338104,143125.64052649026,101016.76446399266,113112.72390040444,97073.71557637639,179438.53043777114,83910.43799047923,TASK1
2026-04-28T11:12:01.655+00:00,1104,78483,64606.10802246428,63318.71459707196,143125.1711398567,101016.2950773591,113114.60144693869,97073.71557637639,179437.79283020413,83911.51087421308,TASK1
2026-04-28T11:12:01.655+00:00,1104,78484,64606.644464331206,63318.71459707196,143124.16531135622,101014.75280699169,113114.13206030513,97072.17330600896,179440.47503953875,83917.67995568275,TASK1
2026-04-28T11:12:01.655+00:00,1104,78485,64605.370414897254,63317.70876857147,143122.6230409888,101013.47875755774,113113.12623180464,97072.17330600896,179443.96191167377,83926.26302555359,TASK1
2026-04-28T11:12:01.655+00:00,1104,78486,64606.979740498035,63318.51343137186,143121.88543342176,101013.27759185764,113112.38862423762,97071.97214030886,179443.76074597368,83928.4087930213,TASK1
2026-04-28T11:12:01.655+00:00,1104,78487,64608.589066098815,63319.85453603918,143122.95831715563,101013.81403372456,113113.99794983839,97073.31324497619,179442.75491747318,83930.01811862207,TASK1
2026-04-28T11:12:01.655+00:00,1104,78488,64608.38790039872,63320.39097790611,143122.95831715563,101014.88691745841,113116.68015917303,97075.4590124439,179444.9006849409,83938.86940942638,TASK1
2026-04-28T11:12:01.655+00:00,1104,78489,64607.65029283169,63322.00030350689,143123.76297995602,101014.88691745841,113118.55770570728,97075.99545431082,179449.46044080978,83947.72070023068,TASK1
2026-04-28T11:12:01.655+00:00,1104,78490,64612.67943533414,63321.79913780679,143125.64052649026,101014.48458605821,113121.03874934182,97076.26367524429,179452.61203677798,83956.63904626835,TASK1
2026-04-28T11:12:01.655+00:00,1104,78491,64615.8980865357,63321.061530239764,143125.90874742373,101014.28342035812,113121.8434121422,97077.6047799116,179451.33798734404,83958.24837186914,TASK1
2026-04-28T11:12:01.655+00:00,1104,78492,64619.38495867073,63320.86036453967,143125.70758172363,101014.28342035812,113123.18451680953,97076.59895141111,179450.33215884355,83959.05303466952,TASK1
2026-04-28T11:12:01.655+00:00,1104,78493,64619.921400537656,63323.27435294084,143124.16531135622,101014.55164129159,113122.4469092425,97077.94005607844,179448.52166754266,83960.6623602703,TASK1
2026-04-28T11:12:01.655+00:00,1104,78494,64618.915572037164,63326.49300414241,143123.15948285573,101014.55164129159,113122.4469092425,97079.0129398123,179450.13099314345,83967.63610454036,TASK1
2026-04-28T11:12:01.655+00:00,1104,78495,64618.915572037164,63326.49300414241,143122.69009622216,101014.35047559149,113123.78801390983,97079.81760261267,179452.00853967768,83974.34162787696,TASK1
2026-04-28T11:12:01.655+00:00,1104,78496,64623.475327906046,63325.75539657538,143122.69009622216,101013.88108895792,113124.86089764368,97082.49981194732,179451.5391530441,83973.60402030993,TASK1
2026-04-28T11:12:01.655+00:00,1104,78497,64625.084653506834,63325.75539657538,143122.95831715563,101012.87526045744,113126.47022324445,97082.76803288078,179452.3438158445,83981.38242738038,TASK1
2026-04-28T11:12:01.655+00:00,1104,78498,64626.42575817415,63330.315152444266,143125.3723055568,101016.093911659,113128.3477697787,97084.1091375481,179453.68492051185,83986.74684604965,TASK1
2026-04-28T11:12:01.655+00:00,1104,78499,64625.41992967366,63332.46091991197,143123.29359332245,101017.70323725978,113128.61599071216,97084.91380034848,179454.22136237877,83988.35617165043,TASK1
2026-04-28T11:12:01.655+00:00,1104,78500,64625.68815060712,63329.8457658107,143122.8242066889,101015.62452502544,113127.34194127821,97084.17619278147,179455.02602517916,83991.84304378545,TASK1
2026-04-28T11:12:01.655+00:00,1104,78501,64625.95637154059,63330.11398674417,143123.36064855583,101014.88691745841,113126.87255464465,97084.7126346484,179456.098908913,83997.20746245474,TASK1
2026-04-28T11:12:01.655+00:00,1104,78502,64625.486984907024,63332.259754211875,143123.36064855583,101014.88691745841,113127.9454383785,97084.7126346484,179456.36712984648,83999.88967178937,TASK1
2026-04-28T11:12:01.655+00:00,1104,78503,64627.09631050781,63335.210184479976,143122.89126192225,101015.42335932534,113127.9454383785,97084.7126346484,179457.17179264687,84005.52231139211,TASK1
2026-04-28T11:12:01.655+00:00,1104,78504,64629.24207797552,63335.00901877988,143122.89126192225,101017.03268492612,113128.48188024544,97087.66306491649,179457.7082345138,84009.54562539406,TASK1
2026-04-28T11:12:01.655+00:00,1104,78505,64631.656066376694,63333.46674841246,143124.76880845652,101016.56329829256,113128.48188024544,97089.27239051728,179459.0493391811,84010.88673006138,TASK1
2026-04-28T11:12:01.655+00:00,1104,78506,64633.8018338444,63331.924478045046,143125.30525032344,101015.28924885861,113129.82298491275,97087.73012014986,179461.1951066488,84016.78759059758,TASK1
2026-04-28T11:12:01.655+00:00,1104,78507,64634.874717578256,63332.192698978506,143124.83586368986,101015.28924885861,113130.62764771315,97088.53478295026,179462.26799038268,84020.54268366608,TASK1
2026-04-28T11:12:01.655+00:00,1104,78508,64636.7522641125,63334.60668737968,143124.63469798976,101015.82569072554,113131.16408958007,97089.87588761757,179462.26799038268,84022.42023020031,TASK1
2026-04-28T11:12:01.655+00:00,1104,78509,64638.361589713284,63336.21601298046,143124.63469798976,101015.62452502544,113132.77341518085,97088.06539631668,179461.7986037491,84026.71176513574,TASK1
2026-04-28T11:12:01.655+00:00,1104,78510,64638.629810646744,63337.82533858125,143124.16531135622,101015.42335932534,113133.04163611431,97089.13828005054,179461.7986037491,84030.19863727076,TASK1
2026-04-28T11:12:01.655+00:00,1104,78511,64638.629810646744,63338.09355951471,143123.15948285573,101015.22219362525,113131.23114481344,97090.74760565133,179462.6032665495,84034.75839313965,TASK1
2026-04-28T11:12:01.655+00:00,1104,78512,64639.43447344714,63337.89239381461,143122.4218752887,101014.75280699169,113132.84047041422,97088.66889341698,179462.4021008494,84035.8312768735,TASK1
2026-04-28T11:12:01.655+00:00,1104,78513,64640.77557811446,63340.038161282326,143120.8796049213,101015.28924885861,113132.37108378066,97088.19950678342,179461.93271421586,84037.44060247428,TASK1
2026-04-28T11:12:01.655+00:00,1104,78514,64644.798892116414,63337.95944904798,143120.6784392212,101016.093911659,113130.02415061285,97090.07705331767,179461.46332758229,84042.26857927663,TASK1
2026-04-28T11:12:01.655+00:00,1104,78515,64642.18373801514,63339.03233278183,143120.6784392212,101016.8985744594,113130.29237154631,97092.22282078538,179462.53621131612,84047.63299794591,TASK1
2026-04-28T11:12:01.655+00:00,1104,78516,64641.177909514656,63340.10521651569,143120.20905258763,101018.23967912671,113130.82881341325,97094.10036731962,179464.1455369169,84052.72919568172,TASK1
2026-04-28T11:12:01.655+00:00,1104,78517,64643.59189791582,63342.78742585032,143120.00788688753,101020.11722566096,113133.77924368135,97096.51435572079,179466.82774625157,84057.55717248407,TASK1
2026-04-28T11:12:01.655+00:00,1104,78518,64642.8542903488,63344.93319331804,143118.19739558664,101019.91605996086,113132.77341518085,97097.58723945465,179466.82774625157,84058.8982771514,TASK1
2026-04-28T11:12:01.655+00:00,1104,78519,64642.8542903488,63345.46963518496,143117.45978801962,101019.17845239383,113131.4993657469,97098.12368132158,179466.82774625157,84059.97116088525,TASK1
2026-04-28T11:12:01.655+00:00,1104,78520,64642.8542903488,63342.85448108369,143117.45978801962,101018.44084482681,113133.37691228115,97095.77674815377,179468.7052927858,84066.94490515531,TASK1
2026-04-28T11:12:01.655+00:00,1104,78521,64648.218709018074,63341.982763049935,143120.81254968792,101018.97728669373,113138.74133095042,97095.9108586205,179472.92977248784,84072.77871045814,TASK1
2026-04-28T11:12:01.655+00:00,1104,78522,64650.63269741925,63341.78159734984,143122.69009622216,101018.97728669373,113139.27777281735,97095.7096929204,179471.92394398738,84075.46091979278,TASK1
2026-04-28T11:12:01.655+00:00,1104,78523,64650.43153171915,63344.19558575101,143120.8796049213,101019.78194949412,113137.46728151647,97097.85546038812,179469.3087898861,84077.33846632703,TASK1
2026-04-28T11:12:01.655+00:00,1104,78524,64649.962145085585,63346.34135321872,143118.26445082002,101020.31839136106,113135.6567902156,97100.00122785583,179467.4982985852,84077.33846632703,TASK1
2026-04-28T11:12:01.655+00:00,1104,78525,64652.37613348676,63346.34135321872,143118.5326717535,101021.39127509491,113136.72967394945,97101.87877439008,179468.57118231908,84079.21601286126,TASK1
2026-04-28T11:12:01.655+00:00,1104,78526,64653.71723815408,63348.487120686426,143119.0691136204,101021.92771696183,113136.99789488291,97100.60472495611,179467.83357475203,84080.55711752859,TASK1
2026-04-28T11:12:01.655+00:00,1104,78527,64652.979630587055,63348.487120686426,143118.8679479203,101019.0443419271,113136.26028731588,97096.64846618753,179467.095967185,84086.72619899825,TASK1
2026-04-28T11:12:01.655+00:00,1104,78528,64657.00294458901,63345.335524718226,143118.6667822202,101016.6974087593,113137.6013919832,97092.69220741894,179468.16885091888,84095.04104793562,TASK1
2026-04-28T11:12:01.655+00:00,1104,78529,64659.95337485711,63344.59791715121,143118.19739558664,101017.77029249315,113138.4060547836,97094.03331208625,179469.77817651967,84100.40546660489,TASK1
2026-04-28T11:12:01.655+00:00,1104,78530,64658.67932542316,63344.86613808467,143117.45978801962,101020.18428089432,113137.66844721657,97096.44730048743,179469.77817651967,84101.21012940528,TASK1
2026-04-28T11:12:01.655+00:00,1104,78531,64657.67349692267,63347.81656835277,143115.9175176522,101021.52538556163,113136.66261871607,97099.39773075553,179468.5041270857,84100.20430090479,TASK1
2026-04-28T11:12:01.655+00:00,1104,78532,64658.209938789594,63349.42589395355,143114.10702635132,101020.78777799461,113136.19323208251,97099.19656505543,179469.3087898861,84105.03227770714,TASK1
2026-04-28T11:12:01.655+00:00,1104,78533,64661.69681092462,63348.688286386525,143115.44813101864,101020.58661229452,113136.99789488291,97098.99539935534,179468.03474045213,84105.56871957408,TASK1
2026-04-28T11:12:01.655+00:00,1104,78534,64662.76969465848,63347.14601601911,143114.9787443851,101021.39127509491,113138.07077861676,97101.4093877565,179465.68780728432,84104.56289107358,TASK1
2026-04-28T11:12:01.655+00:00,1104,78535,64660.15454055721,63347.9506788195,143112.90003215073,101022.46415882876,113137.06495011627,97101.4093877565,179466.22424915127,84108.0497632086,TASK1
2026-04-28T11:12:01.655+00:00,1104,78536,64660.69098242414,63348.75534161989,143112.69886645064,101021.19010939481,113135.52267974886,97098.2577917883,179465.48664158423,84112.6095190775,TASK1
2026-04-28T11:12:01.655+00:00,1104,78537,64663.64141269223,63351.43755095453,143113.50352925103,101021.9947721952,113135.79090068232,97099.33067552216,179464.7490340172,84116.09639121252,TASK1
2026-04-28T11:12:01.655+00:00,1104,78538,64666.05540109341,63355.46086495648,143114.03997111795,101023.33587686252,113138.47311001696,97100.40355925602,179463.74320551672,84115.89522551243,TASK1
2026-04-28T11:12:01.655+00:00,1104,78539,64667.66472669419,63354.72325738946,143114.03997111795,101023.13471116242,113139.54599375081,97098.59306795514,179463.27381888317,84115.42583887886,TASK1
2026-04-28T11:12:01.655+00:00,1104,78540,64669.274052294975,63350.76699862087,143114.03997111795,101022.66532452886,113139.34482805071,97099.66595168899,179462.8044322496,84118.37626914696,TASK1
2026-04-28T11:12:01.655+00:00,1104,78541,64669.274052294975,63351.3034404878,143113.30236355093,101022.93354546232,113138.33899955022,97102.6163819571,179461.7986037491,84118.17510344686,TASK1
2026-04-28T11:12:01.655+00:00,1104,78542,64671.48687499605,63353.24804225541,143113.43647401768,101025.01225769667,113140.01538038437,97106.70675119241,179464.61492355049,84124.14301921643,TASK1
2026-04-28T11:12:01.655+00:00,1104,78543,64672.827979663365,63355.393809723115,143113.43647401768,101025.81692049706,113141.62470598516,97107.77963492626,179468.1017956855,84132.45786815381,TASK1
2026-04-28T11:12:01.655+00:00,1104,78544,64673.36442153029,63358.34423999122,143112.9670873841,101025.81692049706,113142.69758971901,97104.89625989154,179471.856888754,84139.96805429079,TASK1
2026-04-28T11:12:01.655+00:00,1104,78545,64676.58307273186,63359.41712372507,143113.7717501845,101025.07931293003,113143.77047345287,97102.28110579026,179473.73443528824,84146.40535669391,TASK1
2026-04-28T11:12:01.655+00:00,1104,78546,64679.533502999955,63359.21595802497,143114.03997111795,101025.61575479696,113144.03869438633,97104.1586523245,179473.53326958814,84150.1604497624,TASK1
2026-04-28T11:12:01.655+00:00,1104,78547,64676.65012796522,63362.97105109347,143113.83880541785,101027.22508039774,113145.11157812018,97107.913745393,179474.33793238853,84156.59775216554,TASK1
2026-04-28T11:12:01.655+00:00,1104,78548,64678.52767449947,63362.23344352644,143114.10702635132,101027.02391469764,113146.18446185403,97109.79129192725,179475.67903705584,84163.03505456867,TASK1
2026-04-28T11:12:01.655+00:00,1104,78549,64682.0145466345,63362.5016644599,143114.91168915172,101027.82857749803,113147.79378745482,97113.00994312881,179476.7519207897,84164.91260110291,TASK1
2026-04-28T11:12:01.655+00:00,1104,78550,64680.740497200546,63367.06142032879,143113.3694187843,101030.51078683267,113148.59845025522,97113.27816406227,179478.62946732395,84169.74057790526,TASK1
2026-04-28T11:12:01.655+00:00,1104,78551,64683.15448560172,63367.59786219572,143113.3694187843,101031.0472286996,113148.86667118868,97109.59012622715,179479.9705719913,84175.64143844145,TASK1
2026-04-28T11:12:02.022+00:00,1105,78552,64684.495590269034,63366.0555918283,143113.3694187843,101030.8460629995,113149.67133398907,97110.12656809407,179481.57989759205,84179.39653150995,TASK1
2026-04-28T11:12:02.022+00:00,1105,78553,64686.104915869815,63367.12847556215,143113.63763971778,101029.57201356554,113150.74421772292,97111.19945182792,179485.33499066054,84183.95628737884,TASK1
2026-04-28T11:12:02.022+00:00,1105,78554,64689.323567071384,63366.12264706167,143114.44230251815,101028.02974319813,113153.15820612409,97111.4676727614,179484.59738309353,84185.56561297961,TASK1
2026-04-28T11:12:02.022+00:00,1105,78555,64687.24485483704,63361.36172549269,143112.90003215073,101025.41458909686,113153.69464799103,97110.73006519437,179485.93848776084,84192.00291538275,TASK1
2026-04-28T11:12:02.022+00:00,1105,78556,64687.781296703964,63362.70283016,143113.43647401768,101026.48747283072,113153.96286892449,97112.33939079515,179487.27959242815,84196.83089218508,TASK1
2026-04-28T11:12:02.022+00:00,1105,78557,64689.390622304745,63362.97105109347,143112.9670873841,101027.02391469764,113154.4993107914,97111.8700041616,179484.39621739343,84193.14285434996,TASK1
2026-04-28T11:12:02.022+00:00,1105,78558,64688.92123567119,63362.76988539337,143111.15659608322,101025.74986526369,113152.957040424,97111.6688384615,179484.93265926035,84197.97083115231,TASK1
2026-04-28T11:12:02.022+00:00,1105,78559,64689.189456604654,63362.56871969327,143110.15076758273,101025.01225769667,113154.29814509132,97112.74172219535,179487.614868595,84202.53058702119,TASK1
2026-04-28T11:12:02.022+00:00,1105,78560,64689.99411940504,63364.71448716098,143109.6813809492,101025.54869956359,113154.83458695824,97113.54638499575,179487.88308952845,84203.33524982158,TASK1
2026-04-28T11:12:02.022+00:00,1105,78561,64690.798782205435,63368.20135929601,143109.2119943156,101027.15802516438,113154.09697939122,97114.08282686266,179488.41953139537,84205.74923822275,TASK1
2026-04-28T11:12:02.022+00:00,1105,78562,64692.94454967314,63372.49289423143,143108.20616581512,101029.03557169862,113153.62759275765,97114.88748966306,179489.49241512924,84207.89500569047,TASK1
2026-04-28T11:12:02.022+00:00,1105,78563,64692.20694210612,63371.48706573094,143107.20033731463,101028.29796413159,113154.16403462458,97114.68632396296,179491.36996166347,84213.25942435974,TASK1
2026-04-28T11:12:02.022+00:00,1105,78564,64692.00577640602,63368.87191162967,143105.9262878807,101026.75569376418,113155.5051392919,97114.68632396296,179492.97928726426,84221.57427329711,TASK1
2026-04-28T11:12:02.022+00:00,1105,78565,64693.6151020068,63370.48123723045,143105.18868031367,101026.75569376418,113155.5051392919,97117.3685332976,179493.78395006465,84224.79292449867,TASK1
2026-04-28T11:12:02.022+00:00,1105,78566,64695.49264854105,63371.554120964305,143104.7192936801,101027.56035656457,113155.5051392919,97116.89914666403,179493.78395006465,84226.93869196638,TASK1
2026-04-28T11:12:02.022+00:00,1105,78567,64700.18651487666,63375.77860066636,143107.33444778138,101029.30379263208,113158.8579009602,97118.44141703146,179493.85100529803,84233.37599436952,TASK1
2026-04-28T11:12:02.022+00:00,1105,78568,64702.600503277834,63376.85148440021,143107.8708896483,101029.84023449902,113159.39434282713,97120.58718449916,179492.30873493062,84232.37016586903,TASK1
2026-04-28T11:12:02.022+00:00,1105,78569,64705.01449167901,63374.77277216587,143109.2119943156,101029.63906879892,113158.6567352601,97121.66006823302,179492.84517679753,84236.12525893752,TASK1
2026-04-28T11:12:02.022+00:00,1105,78570,64704.54510504545,63375.84565589972,143109.2119943156,101031.51661533317,113158.92495619356,97124.61049850112,179493.91806053137,84240.41679387294,TASK1
2026-04-28T11:12:02.022+00:00,1105,78571,64705.08154691238,63376.91853963358,143107.6697239482,101031.78483626663,113160.53428179435,97125.95160316843,179493.71689483128,84243.09900320758,TASK1
2026-04-28T11:12:02.022+00:00,1105,78572,64706.15443064623,63379.600748968216,143105.59101171387,101031.78483626663,113159.79667422731,97125.48221653487,179492.44284539734,84246.04943347568,TASK1
2026-04-28T11:12:02.022+00:00,1105,78573,64704.88038121228,63380.4054117686,143103.78052041298,101032.85772000048,113159.32728759375,97125.48221653487,179491.97345876376,84250.3409684111,TASK1
2026-04-28T11:12:02.022+00:00,1105,78574,64704.88038121228,63381.210074569,143102.50647097902,101033.12594093394,113159.32728759375,97125.75043746833,179490.69940932983,84250.60918934456,TASK1
2026-04-28T11:12:02.022+00:00,1105,78575,64704.88038121228,63383.62406297017,143102.50647097902,101033.93060373433,113159.86372946069,97127.89620493604,179489.9618017628,84250.60918934456,TASK1
2026-04-28T11:12:02.022+00:00,1105,78576,64705.95326494613,63382.61823446968,143102.30530527892,101033.93060373433,113160.13195039415,97129.77375147029,179492.9122320309,84257.58293361461,TASK1
2026-04-28T11:12:02.022+00:00,1105,78577,64709.70835801462,63380.27130130187,143104.18285181318,101032.38833336692,113162.54593879532,97126.89037643556,179496.13088323246,84266.16600348546,TASK1
2026-04-28T11:12:02.022+00:00,1105,78578,64712.122346415796,63380.53952223534,143104.7192936801,101031.38250486643,113163.61882252918,97125.88454793507,179499.34953443403,84273.67618962243,TASK1
2026-04-28T11:12:02.022+00:00,1105,78579,64711.65295978224,63378.99725186792,143102.3723605123,101028.49912983169,113161.27188936136,97124.61049850112,179498.61192686702,84275.55373615668,TASK1
2026-04-28T11:12:02.022+00:00,1105,78580,64712.189401649164,63378.259644300895,143101.3665320118,101026.95685946428,113162.34477309522,97127.56092876922,179496.80143556613,84271.59747738809,TASK1
2026-04-28T11:12:02.022+00:00,1105,78581,64712.189401649164,63378.0584786008,143099.8242616444,101028.56618506506,113162.14360739513,97130.77957997078,179497.33787743305,84274.27968672273,TASK1
2026-04-28T11:12:02.022+00:00,1105,78582,64710.378910348285,63380.20424606851,143098.0137703435,101030.71195253277,113162.14360739513,97130.57841427068,179499.21542396728,84281.7898728597,TASK1
2026-04-28T11:12:02.022+00:00,1105,78583,64706.69087251316,63384.49578100393,143097.007941843,101032.58949906702,113162.94827019551,97130.57841427068,179497.40493266642,84283.13097752703,TASK1
2026-04-28T11:12:02.022+00:00,1105,78584,64711.78707024897,63382.953510636515,143097.007941843,101029.43790309882,113162.74710449541,97127.69503923594,179495.862662299,84284.47208219435,TASK1
2026-04-28T11:12:02.022+00:00,1105,78585,64712.85995398282,63377.38792626714,143096.00211334252,101027.89563273141,113161.47305506146,97127.49387353584,179498.27665070017,84288.22717526284,TASK1
2026-04-28T11:12:02.022+00:00,1105,78586,64711.04946268194,63376.91853963358,143094.19162204166,101027.42624609784,113159.39434282713,97128.03031540278,179499.34953443403,84293.32337299865,TASK1
2026-04-28T11:12:02.022+00:00,1105,78587,64713.46345108312,63378.52786523436,143093.99045634156,101027.42624609784,113158.92495619356,97128.5667572697,179498.07548500007,84294.93269859943,TASK1
2026-04-28T11:12:02.022+00:00,1105,78588,64715.609218550824,63379.868969901676,143093.99045634156,101027.22508039774,113159.46139806049,97129.37142007009,179498.07548500007,84297.07846606713,TASK1
2026-04-28T11:12:02.022+00:00,1105,78589,64716.950323218145,63379.13136233465,143094.258677275,101025.1463681634,113161.6071655282,97130.17608287049,179499.14836873394,84298.151349801,TASK1
2026-04-28T11:12:02.022+00:00,1105,78590,64717.48676508507,63379.66780420158,143094.0575115749,101025.1463681634,113162.68004926205,97129.43847530347,179499.14836873394,84301.63822193602,TASK1
2026-04-28T11:12:02.022+00:00,1105,78591,64718.827869752386,63380.20424606851,143093.8563458748,101025.41458909686,113163.7529329959,97131.85246370464,179497.87431929997,84301.90644286948,TASK1
2026-04-28T11:12:02.022+00:00,1105,78592,64720.9736372201,63379.466638501486,143093.38695924127,101025.21342339677,113166.43514233055,97133.46178930542,179498.41076116692,84302.71110566988,TASK1
2026-04-28T11:12:02.022+00:00,1105,78593,64721.77830002049,63379.26547280139,143092.38113074077,101025.21342339677,113167.77624699786,97133.73001023888,179501.09297050154,84308.88018713954,TASK1
2026-04-28T11:12:02.022+00:00,1105,78594,64725.466337855614,63380.070135601774,143093.7222354081,101026.68863853082,113168.5138545649,97135.74166723985,179504.64689786994,84316.4574285099,TASK1
2026-04-28T11:12:02.022+00:00,1105,78595,64727.88032625679,63381.411240269095,143093.521069708,101027.49330133121,113168.78207549835,97135.54050153976,179504.17751123637,84318.06675411067,TASK1
2026-04-28T11:12:02.022+00:00,1105,78596,64729.75787279103,63385.70277520451,143093.05168307442,101029.90728973238,113167.5080260644,97139.83203647519,179503.97634553627,84321.5536262457,TASK1
2026-04-28T11:12:02.022+00:00,1105,78597,64730.294314657964,63387.3121008053,143093.3199040079,101030.17551066584,113167.5080260644,97142.78246674329,179504.24456646974,84325.3087193142,TASK1
2026-04-28T11:12:02.022+00:00,1105,78598,64732.171861192204,63386.306272304806,143093.8563458748,101028.63324029843,113169.11735166518,97138.8262079747,179505.85389207053,84329.33203331615,TASK1
2026-04-28T11:12:02.022+00:00,1105,78599,64731.16603269172,63387.1109351052,143091.77763364048,101028.43207459833,113169.38557259865,97137.55215854074,179506.65855487093,84333.08712638463,TASK1
2026-04-28T11:12:02.022+00:00,1105,78600,64729.89198325777,63389.793144439835,143088.89425860575,101030.30962113258,113167.03863943084,97140.7708097423,179507.19499673785,84336.30577758621,TASK1
2026-04-28T11:12:02.022+00:00,1105,78601,64732.84241352587,63388.78731593935,143088.89425860575,101030.30962113258,113166.30103186381,97142.64835627655,179509.608985139,84341.13375438855,TASK1
2026-04-28T11:12:02.022+00:00,1105,78602,64739.54793686246,63384.831057170755,143091.57646794038,101026.62158329746,113171.39722959962,97140.83786497566,179506.45738917083,84338.51860028728,TASK1
2026-04-28T11:12:02.022+00:00,1105,78603,64740.084378729385,63385.63571997115,143091.57646794038,101026.42041759736,113172.47011333347,97139.83203647519,179505.98800253725,84340.12792588807,TASK1
2026-04-28T11:12:02.022+00:00,1105,78604,64739.88321302929,63387.5132665054,143088.9613138391,101026.68863853082,113171.19606389952,97139.36264984161,179506.79266533765,84342.27369335578,TASK1
2026-04-28T11:12:02.022+00:00,1105,78605,64740.151433962754,63388.317929305784,143087.9554853386,101026.48747283072,113171.464284833,97139.63087077509,179508.13377000496,84347.10167015811,TASK1
2026-04-28T11:12:02.022+00:00,1105,78606,64740.95609676314,63388.58615023925,143088.49192720556,101027.82857749803,113172.80538950031,97141.24019637586,179510.27953747267,84353.27075162779,TASK1
2026-04-28T11:12:02.022+00:00,1105,78607,64743.638306097775,63389.659033973105,143090.10125280631,101027.35919086447,113172.80538950031,97142.58130104319,179512.15708400693,84358.63517029706,TASK1
2026-04-28T11:12:02.022+00:00,1105,78608,64746.58873636588,63392.07302237428,143091.17413654018,101028.43207459833,113174.68293603456,97141.84369347616,179513.22996774077,84361.3173796317,TASK1
2026-04-28T11:12:02.022+00:00,1105,78609,64746.38757066578,63394.21878984199,143090.7047499066,101030.04140019912,113175.48759883495,97141.3743068426,179514.5710724081,84365.87713550057,TASK1
2026-04-28T11:12:02.022+00:00,1105,78610,64747.7286753331,63395.82811544277,143091.24119177356,101031.38250486643,113175.48759883495,97144.3247371107,179514.5710724081,84363.79842326623,TASK1
2026-04-28T11:12:02.022+00:00,1105,78611,64751.48376840159,63396.90099917662,143092.3140755074,101034.06471420107,113176.02404070187,97148.34805111265,179515.64395614195,84365.13952793356,TASK1
2026-04-28T11:12:02.022+00:00,1105,78612,64754.970640536616,63399.85142944472,143093.9234011082,101035.40581886838,113177.36514536919,97149.95737671343,179518.59438641006,84371.57683033668,TASK1
2026-04-28T11:12:02.022+00:00,1105,78613,64752.89192830228,63401.99719691243,143092.9175726077,101035.20465316829,113178.16980816958,97148.95154821295,179519.13082827698,84376.67302807249,TASK1
2026-04-28T11:12:02.022+00:00,1105,78614,64754.23303296959,63396.69983347652,143092.9175726077,101032.85772000048,113179.5109128369,97146.8728359786,179519.93549107737,84382.84210954215,TASK1
2026-04-28T11:12:02.022+00:00,1105,78615,64756.378800437305,63393.54823750832,143094.258677275,101030.77900776613,113179.77913377037,97145.59878654465,179519.4661044438,84382.64094384205,TASK1
2026-04-28T11:12:02.022+00:00,1105,78616,64756.91524230423,63395.15756310911,143093.78929064146,101031.0472286996,113179.77913377037,97145.59878654465,179519.2649387437,84380.5622316077,TASK1
2026-04-28T11:12:02.022+00:00,1105,78617,64757.18346323769,63396.76688870989,143092.5152412075,101031.31544963307,113179.77913377037,97147.4763330789,179517.99088930976,84385.39020841006,TASK1
2026-04-28T11:12:02.022+00:00,1105,78618,64757.45168417116,63397.57155151028,143092.78346214097,101030.04140019912,113180.31557563729,97148.01277494582,179517.25328174274,84391.29106894626,TASK1
2026-04-28T11:12:02.022+00:00,1105,78619,64756.982297537594,63396.029281142866,143092.04585457395,101030.57784206604,113180.58379657076,97146.73872551187,179517.5215026762,84394.50972014782,TASK1
2026-04-28T11:12:02.022+00:00,1105,78620,64757.78696033799,63396.56572300979,143091.84468887385,101030.10845543248,113181.12023843768,97145.73289701137,179518.59438641006,84396.923708549,TASK1
2026-04-28T11:12:02.022+00:00,1105,78621,64760.20094873916,63396.56572300979,143091.37530224028,101028.83440599852,113180.65085180412,97144.7270685109,179517.3203369761,84397.19192948246,TASK1
2026-04-28T11:12:02.022+00:00,1105,78622,64762.34671620687,63398.97971141097,143092.44818597415,101029.63906879892,113180.44968610402,97143.98946094386,179516.04628754215,84398.26481321632,TASK1
2026-04-28T11:12:02.022+00:00,1105,78623,64763.151379007264,63402.19836261253,143093.25284877451,101032.32127813355,113180.44968610402,97148.28099587928,179516.04628754215,84401.75168535134,TASK1
2026-04-28T11:12:02.022+00:00,1105,78624,64764.49248367458,63403.27124634638,143093.25284877451,101033.12594093394,113182.05901170481,97149.35387961315,179517.38739220946,84406.57966215369,TASK1
2026-04-28T11:12:02.022+00:00,1105,78625,64769.521626177026,63407.09339464824,143096.4714999761,101034.73526653473,113187.15520944062,97151.23142614738,179522.68475564537,84413.8216273572,TASK1
2026-04-28T11:12:02.022+00:00,1105,78626,64772.47205644513,63409.77560398288,143096.270334276,101035.00348746819,113188.22809317448,97153.10897268163,179522.95297657882,84415.96739482491,TASK1
2026-04-28T11:12:02.346+00:00,1106,78627,64774.34960297937,63411.116708650196,143096.270334276,101035.00348746819,113188.49631410794,97153.64541454856,179524.83052311308,84419.99070882687,TASK1
2026-04-28T11:12:02.346+00:00,1106,78628,64778.37291698132,63409.57443828278,143097.87965987678,101035.00348746819,113190.10563970871,97152.90780698153,179526.43984871387,84425.89156936307,TASK1
2026-04-28T11:12:02.346+00:00,1106,78629,64777.903530347765,63409.57443828278,143097.87965987678,101034.80232176809,113190.9103025091,97151.90197848105,179526.9762905808,84432.3288717662,TASK1
2026-04-28T11:12:02.346+00:00,1106,78630,64777.16592278074,63409.57443828278,143095.80094764242,101033.7964932676,113189.09981120823,97151.16437091402,179524.3611364795,84432.12770606611,TASK1
2026-04-28T11:12:02.346+00:00,1106,78631,64779.579911181914,63410.11088014971,143094.79511914196,101034.33293513453,113188.89864550813,97152.23725464787,179522.28242424518,84431.39009849908,TASK1
2026-04-28T11:12:02.346+00:00,1106,78632,64781.72567864962,63411.183763883564,143095.0633400754,101032.79066476712,113189.70330830853,97152.03608894777,179522.55064517865,84435.14519156757,TASK1
2026-04-28T11:12:02.346+00:00,1106,78633,64781.256292016056,63408.83683071576,143095.33156100888,101032.32127813355,113190.77619204238,97153.3771936151,179523.6235289125,84440.24138930338,TASK1
2026-04-28T11:12:02.346+00:00,1106,78634,64781.79273388299,63408.09922314873,143093.25284877451,101031.85189149999,113191.58085484276,97155.79118201627,179524.42819171288,84442.11893583763,TASK1
2026-04-28T11:12:02.346+00:00,1106,78635,64781.59156818289,63409.70854874951,143092.78346214097,101031.65072579989,113191.84907577623,97156.32762388319,179526.84218011406,84445.60580797265,TASK1
2026-04-28T11:12:02.346+00:00,1106,78636,64783.7373356506,63412.12253715069,143093.8563458748,101032.99183046722,113192.1172967097,97154.51713258232,179529.79261038217,84448.82445917421,TASK1
2026-04-28T11:12:02.346+00:00,1106,78637,64787.22420778563,63412.12253715069,143094.6610086752,101033.52827233414,113193.99484324394,97154.51713258232,179531.40193598293,84453.92065691004,TASK1
2026-04-28T11:12:02.346+00:00,1106,78638,64789.6381961868,63414.00008368493,143094.92922960868,101033.7964932676,113196.40883164511,97156.39467911657,179530.6643284159,84454.72531971041,TASK1
2026-04-28T11:12:02.346+00:00,1106,78639,64791.24752178758,63416.4140720861,143095.19745054215,101034.06471420107,113196.40883164511,97156.93112098349,179529.1220580485,84451.84194467569,TASK1
2026-04-28T11:12:02.346+00:00,1106,78640,64792.5886264549,63415.40824358562,143094.4598429751,101033.5953275675,113195.67122407809,97156.46173434993,179528.116229548,84453.183049343,TASK1
2026-04-28T11:12:02.346+00:00,1106,78641,64793.125068321824,63415.67646451908,143093.4540144746,101033.12594093394,113193.8607327772,97158.33928088417,179524.9646335798,84454.79237494379,TASK1
2026-04-28T11:12:02.346+00:00,1106,78642,64794.466172989145,63416.74934825293,143092.44818597415,101032.65655430038,113191.5137996094,97158.60750181763,179523.4223632124,84456.1334796111,TASK1
2026-04-28T11:12:02.346+00:00,1106,78643,64796.075498589926,63418.35867385372,143091.7105784071,101034.26587990117,113191.3126339093,97158.60750181763,179523.69058414586,84457.74280521189,TASK1
2026-04-28T11:12:02.346+00:00,1106,78644,64798.4894869911,63420.50444132143,143093.05168307442,101034.53410083463,113193.19018044355,97156.79701051676,179523.48941844577,84460.15679361306,TASK1
2026-04-28T11:12:02.346+00:00,1106,78645,64800.36703352535,63419.7668337544,143094.39278774176,101033.7964932676,113196.14061071165,97156.79701051676,179524.0258603127,84463.91188668156,TASK1
2026-04-28T11:12:02.346+00:00,1106,78646,64799.76353642505,63419.498612820935,143093.1187383078,101033.05888570058,113196.00650024491,97159.07688845119,179526.50690394721,84470.01391291784,TASK1
2026-04-28T11:12:02.346+00:00,1106,78647,64802.44574575969,63418.49278432045,143092.38113074077,101032.05305720009,113195.2688926779,97160.14977218505,179524.9646335798,84471.89145945209,TASK1
2026-04-28T11:12:02.346+00:00,1106,78648,64801.171696325735,63418.023397686884,143091.64352317376,101033.3941618674,113196.07355547829,97161.75909778583,179526.03751731367,84476.71943625444,TASK1
2026-04-28T11:12:02.346+00:00,1106,78649,64801.97635912613,63416.212906386005,143091.9117441072,101031.58367056653,113197.95110201254,97160.75326928534,179528.45150571482,84482.62029679064,TASK1
2026-04-28T11:12:02.346+00:00,1106,78650,64802.512800993056,63417.285790119866,143092.17996504068,101029.77317926564,113198.48754387946,97160.01566171832,179529.79261038217,84486.37538985914,TASK1
2026-04-28T11:12:02.346+00:00,1106,78651,64803.58568472691,63418.35867385372,143091.7105784071,101030.30962113258,113199.82864854677,97161.6249873191,179529.3232237486,84487.44827359299,TASK1
2026-04-28T11:12:02.346+00:00,1106,78652,64807.07255686194,63418.35867385372,143092.78346214097,101031.65072579989,113200.3650904137,97162.69787105295,179529.59144468207,84487.2471078929,TASK1
2026-04-28T11:12:02.346+00:00,1106,78653,64808.41366152926,63418.35867385372,143093.05168307442,101031.18133916633,113200.1639247136,97161.69204255247,179530.127886549,84490.73398002792,TASK1
2026-04-28T11:12:02.346+00:00,1106,78654,64810.02298713004,63420.23622038796,143092.04585457395,101030.98017346623,113199.9627590135,97161.96026348593,179529.1220580485,84491.27042189485,TASK1
2026-04-28T11:12:02.346+00:00,1106,78655,64810.827649930434,63420.03505468786,143091.57646794038,101030.98017346623,113199.22515144649,97161.22265591891,179528.116229548,84491.27042189485,TASK1
2026-04-28T11:12:02.346+00:00,1106,78656,64810.626484230335,63422.7172640225,143088.9613138391,101031.51661533317,113196.60999734521,97164.70952805394,179526.03751731367,84491.27042189485,TASK1
2026-04-28T11:12:02.346+00:00,1106,78657,64813.0404726315,63424.326589623284,143087.9554853386,101031.0472286996,113198.219322946,97164.70952805394,179524.7634678797,84492.87974749562,TASK1
2026-04-28T11:12:02.346+00:00,1106,78658,64816.52734476653,63424.125423923186,143089.83303187287,101029.50495833218,113201.1697532141,97162.36259488613,179526.10457254702,84495.56195683026,TASK1
2026-04-28T11:12:02.346+00:00,1106,78659,64817.600228500385,63426.00297045743,143088.82720337238,101030.57784206604,113200.968587514,97163.16725768652,179527.44567721436,84494.82434926325,TASK1
2026-04-28T11:12:02.346+00:00,1106,78660,64817.399062800294,63427.34407512475,143086.74849113805,101031.65072579989,113199.15809621311,97164.7765832873,179529.8596656155,84498.04300046481,TASK1
2026-04-28T11:12:02.346+00:00,1106,78661,64816.92967616673,63428.14873792514,143084.66977890368,101032.45538860028,113198.15226771262,97164.7765832873,179530.6643284159,84503.67564006754,TASK1
2026-04-28T11:12:02.346+00:00,1106,78662,64819.61188550136,63430.29450539285,143085.2062207706,101033.26005140068,113199.76159331341,97164.7765832873,179530.19494178236,84506.35784940218,TASK1
2026-04-28T11:12:02.346+00:00,1106,78663,64823.09875763639,63431.3673891267,143085.74266263755,101034.86937700145,113200.02981424687,97166.38590888809,179529.45733421532,84508.50361686989,TASK1
2026-04-28T11:12:02.346+00:00,1106,78664,64827.658513505274,63433.24493566095,143087.6202091718,101036.7469235357,113201.10269798072,97170.14100195658,179530.2619970157,84509.57650060374,TASK1
2026-04-28T11:12:02.346+00:00,1106,78665,64825.579801270935,63434.317819394804,143087.6202091718,101038.35624913649,113203.24846544844,97173.09143222468,179532.6759854169,84512.25870993838,TASK1
