timestamp_utc,packet_index,sample_index,AF3,AF4,F3,F4,FC5,FC6,O2,O1,label
2026-04-28T11:13:11.090+00:00,1297,95802,64062.55830080013,61232.82745275825,131935.5972928521,94981.25701919281,107434.28557327813,93973.61802740314,169992.79498968064,77660.55496460856,TASK2
2026-04-28T11:13:11.090+00:00,1297,95803,64059.13848389847,61236.314324893276,131933.51858061776,94983.67100759399,107432.2068610438,93975.49557393737,169991.25271931323,77653.3800546384,TASK2
2026-04-28T11:13:11.090+00:00,1297,95804,64060.74780949925,61233.162728925075,131933.7868015512,94982.39695816004,107431.46925347677,93975.02618730381,169990.24689081273,77646.4733656017,TASK2
2026-04-28T11:13:11.090+00:00,1297,95805,64061.552472299634,61231.08401669073,131934.5914643516,94980.85468779261,107430.99986684321,93972.41103320254,169991.3197745466,77643.85821150044,TASK2
2026-04-28T11:13:11.090+00:00,1297,95806,64062.08891416657,61233.162728925075,131936.46901088583,94982.32990292666,107432.67624767736,93972.94747506946,169992.9291001474,77646.8756970019,TASK2
2026-04-28T11:13:11.090+00:00,1297,95807,64062.625356033495,61235.30849639278,131937.5418946197,94982.32990292666,107434.82201514507,93972.74630936938,169991.65505071342,77641.31011263253,TASK2
2026-04-28T11:13:11.090+00:00,1297,95808,64062.625356033495,61236.649601060104,131937.3407289196,94980.51941162579,107436.16311981238,93971.47225993541,169990.9174431464,77636.81741199702,TASK2
2026-04-28T11:13:11.090+00:00,1297,95809,64061.35130659954,61230.27935389034,131934.9937957518,94976.02671099028,107434.08440757803,93969.12532676761,169989.10695184552,77635.00692069613,TASK2
2026-04-28T11:13:11.090+00:00,1297,95810,64060.61369903252,61227.93242072253,131934.9937957518,94974.21621968939,107433.34680001102,93969.12532676761,169988.90578614542,77631.85532472793,TASK2
2026-04-28T11:13:11.090+00:00,1297,95811,64059.87609146549,61229.00530445639,131933.4515253844,94972.94217025544,107433.14563431092,93969.929989568,169988.1681785784,77630.31305436052,TASK2
2026-04-28T11:13:11.090+00:00,1297,95812,64058.06560016461,61229.00530445639,131931.90925501697,94972.47278362188,107433.14563431092,93969.7288238679,169987.9670128783,77630.11188866042,TASK2
2026-04-28T11:13:11.090+00:00,1297,95813,64056.52332979719,61227.46303408897,131930.90342651648,94971.46695512139,107432.67624767736,93968.45477443395,169988.50345474522,77630.11188866042,TASK2
2026-04-28T11:13:11.090+00:00,1297,95814,64056.79155073066,61229.60880155668,131929.6293770825,94971.73517605485,107432.2068610438,93967.44894593347,169987.2294053113,77629.10606015993,TASK2
2026-04-28T11:13:11.090+00:00,1297,95815,64056.79155073066,61230.145243423605,131928.0871067151,94972.00339698832,107431.20103254331,93966.9795592999,169986.49179774424,77630.98360669418,TASK2
2026-04-28T11:13:11.090+00:00,1297,95816,64053.90817569592,61230.949906224,131926.5448363477,94972.00339698832,107430.46342497627,93966.9795592999,169987.29646054463,77628.36845259291,TASK2
2026-04-28T11:13:11.090+00:00,1297,95817,64052.63412626197,61235.50966209288,131924.46612411336,94972.00339698832,107427.84827087501,93966.51017266634,169984.4130855099,77619.04777515505,TASK2
2026-04-28T11:13:11.090+00:00,1297,95818,64054.77989372968,61235.30849639278,131923.99673747979,94972.00339698832,107427.11066330799,93967.04661453328,169982.8708151425,77615.89617918685,TASK2
2026-04-28T11:13:11.090+00:00,1297,95819,64055.58455653007,61231.620458557656,131924.5331793467,94970.99756848783,107428.4517679753,93969.19238200098,169986.08946634404,77619.11483038841,TASK2
2026-04-28T11:13:11.090+00:00,1297,95820,64054.578728029584,61230.88285099063,131924.5331793467,94970.52818185427,107429.79287264262,93970.5334866683,169987.1623500779,77620.45593505574,TASK2
2026-04-28T11:13:11.090+00:00,1297,95821,64051.427132061384,61231.41929285756,131923.7955717797,94969.52235335378,107430.86575637647,93969.5276581678,169985.35185877702,77616.7678972206,TASK2
2026-04-28T11:13:11.090+00:00,1297,95822,64051.225966361286,61232.22395565795,131921.9850804788,94969.52235335378,107428.2506022752,93967.71716686693,169984.07780934309,77613.6163012524,TASK2
2026-04-28T11:13:11.090+00:00,1297,95823,64050.75657972773,61229.877022490145,131920.17458917794,94967.71186205289,107428.04943657511,93967.98538780039,169983.34020177604,77614.4209640528,TASK2
2026-04-28T11:13:11.090+00:00,1297,95824,64052.09768439504,61230.41346435707,131920.17458917794,94965.90137075202,107428.58587844204,93965.10201276565,169982.33437327557,77614.68918498626,TASK2
2026-04-28T11:13:11.090+00:00,1297,95825,64051.360076828016,61231.486348090926,131919.97342347784,94964.89554225153,107429.39054124242,93964.6326261321,169980.2556610412,77610.73292621768,TASK2
2026-04-28T11:13:11.090+00:00,1297,95826,64050.08602739406,61229.40763585658,131918.4311531104,94963.35327188412,107429.92698310936,93964.6326261321,169980.05449534112,77611.2693680846,TASK2
2026-04-28T11:13:11.090+00:00,1297,95827,64049.884861693965,61231.821624257755,131916.62066180955,94964.42615561797,107429.4575964758,93966.51017266634,169980.8591581415,77612.87869368539,TASK2
2026-04-28T11:13:11.090+00:00,1297,95828,64049.68369599387,61233.162728925075,131915.8830542425,94964.69437655143,107429.99403834272,93967.31483546674,169982.4684837423,77612.87869368539,TASK2
2026-04-28T11:13:11.090+00:00,1297,95829,64049.68369599387,61232.15690042458,131914.07256294164,94964.22498991787,107427.91532610837,93968.38771920059,169981.19443430833,77611.33642331796,TASK2
2026-04-28T11:13:11.090+00:00,1297,95830,64050.48835879426,61231.687513791025,131913.3349553746,94964.22498991787,107425.3001720071,93969.19238200098,169978.84750114052,77605.77083894859,TASK2
2026-04-28T11:13:11.090+00:00,1297,95831,64050.82363496109,61234.50383359239,131913.80434200817,94963.88971375104,107426.17189004086,93967.91833256703,169979.115722074,77605.10028661494,TASK2
2026-04-28T11:13:11.090+00:00,1297,95832,64049.8178064606,61233.766226025364,131914.07256294164,94961.54278058323,107426.17189004086,93966.3760621996,169977.84167264003,77603.28979531406,TASK2
2026-04-28T11:13:11.090+00:00,1297,95833,64049.34841982704,61230.88285099063,131913.3349553746,94960.00051021582,107424.09317780651,93965.10201276565,169975.7629604057,77601.21108307972,TASK2
2026-04-28T11:13:11.090+00:00,1297,95834,64049.14725412694,61229.07235968975,131911.79268500718,94957.65357704801,107422.5509074391,93962.75507959785,169972.87958537097,77598.59592897844,TASK2
2026-04-28T11:13:11.090+00:00,1297,95835,64049.68369599387,61231.486348090926,131911.32329837364,94957.65357704801,107422.81912837256,93961.4810301639,169969.99621033622,77596.24899581063,TASK2
2026-04-28T11:13:11.090+00:00,1297,95836,64048.141425626454,61236.314324893276,131910.31746987315,94959.53112358226,107420.74041613821,93962.28569296429,169967.1128353015,77590.14696957433,TASK2
2026-04-28T11:13:11.090+00:00,1297,95837,64047.13559712596,61236.582545826735,131909.31164137265,94958.52529508177,107418.12526203695,93961.81630633073,169965.03412306716,77587.80003640652,TASK2
2026-04-28T11:13:11.090+00:00,1297,95838,64043.98400115777,61234.772054525856,131908.57403380563,94958.32412938167,107418.39348297041,93965.03495753229,169966.37522773448,77590.2140248077,TASK2
2026-04-28T11:13:11.090+00:00,1297,95839,64044.520443024696,61236.917821993564,131905.42243783743,94958.8605712486,107417.65587540339,93966.91250406654,169967.44811146831,77590.75046667462,TASK2
2026-04-28T11:13:11.090+00:00,1297,95840,64045.32510582508,61240.94113599552,131906.49532157127,94960.20167591592,107416.91826783636,93967.180725,169967.98455333526,77592.09157134195,TASK2
2026-04-28T11:13:11.090+00:00,1297,95841,64046.39798955894,61243.355124396694,131909.44575183938,94961.27455964977,107418.25937250369,93967.71716686693,169968.52099520218,77594.77378067658,TASK2
2026-04-28T11:13:11.090+00:00,1297,95842,64041.368847056496,61242.3492958962,131907.90348147196,94959.73228928236,107418.25937250369,93965.63845463259,169968.31982950208,77594.57261497648,TASK2
2026-04-28T11:13:11.090+00:00,1297,95843,64041.368847056496,61240.002362728395,131906.62943203803,94957.92179798147,107416.4488812028,93962.21863773093,169965.7046754008,77594.37144927638,TASK2
2026-04-28T11:13:11.090+00:00,1297,95844,64044.855719191524,61235.241441159415,131907.97053670534,94954.50198107981,107417.78998587013,93961.21280923043,169962.5530794326,77591.2198533082,TASK2
2026-04-28T11:13:11.090+00:00,1297,95845,64042.24056509025,61232.35806612468,131906.16004540445,94952.9597107124,107416.2477155027,93960.74342259688,169960.2061462648,77588.87292014038,TASK2
2026-04-28T11:13:11.090+00:00,1297,95846,64040.43007378937,61234.23561265893,131903.81311223665,94953.49615257932,107414.43722420183,93961.2798644638,169958.12743403047,77584.1119985714,TASK2
2026-04-28T11:13:11.090+00:00,1297,95847,64044.45338779133,61235.57671732625,131906.49532157127,94954.03259444625,107417.11943353646,93960.27403596332,169958.6638758974,77582.30150727052,TASK2
2026-04-28T11:13:11.090+00:00,1297,95848,64042.64289649045,61238.527147594345,131905.48949307078,94954.03259444625,107415.8453841025,93959.26820746282,169957.92626833037,77581.29567877004,TASK2
2026-04-28T11:13:11.090+00:00,1297,95849,64041.10062612303,61243.623345330154,131905.48949307078,94955.64192004703,107414.83955560203,93959.26820746282,169957.4568816968,77580.28985026955,TASK2
2026-04-28T11:13:11.090+00:00,1297,95850,64040.63123948947,61242.3492958962,131905.75771400426,94955.44075434693,107416.18066026934,93960.60931213014,169958.52976543066,77582.43561773725,TASK2
2026-04-28T11:13:11.090+00:00,1297,95851,64041.97234415679,61239.46592086147,131905.28832737068,94953.63026304606,107417.2535440032,93961.41397493053,169959.6026491645,77583.50850147111,TASK2
2026-04-28T11:13:11.090+00:00,1297,95852,64041.234736589766,61239.26475516137,131903.20961513635,94953.63026304606,107417.0523783031,93964.09618426517,169961.48019569876,77585.38604800536,TASK2
2026-04-28T11:13:11.090+00:00,1297,95853,64037.01025688771,61241.678743562545,131901.13090290202,94955.77603051376,107416.0465498026,93965.97373079942,169964.9670678338,77587.80003640652,TASK2
2026-04-28T11:13:11.090+00:00,1297,95854,64035.73620745376,61244.09273196372,131899.85685346805,94956.3124723807,107415.04072130212,93965.50434416585,169967.38105623497,77591.0186876081,TASK2
2026-04-28T11:13:11.090+00:00,1297,95855,64034.998599886734,61245.43383663104,131900.12507440153,94957.65357704801,107415.04072130212,93967.11366976664,169967.9174981019,77594.50555974312,TASK2
2026-04-28T11:13:11.090+00:00,1297,95856,64038.217251088296,61246.506720364894,131901.73440000231,94953.1608764125,107418.52759343715,93962.62096913112,169962.08369279906,77590.0128591076,TASK2
2026-04-28T11:13:11.090+00:00,1297,95857,64040.89946042294,61242.5504615963,131901.53323430222,94949.2046176439,107417.78998587013,93958.93293129599,169957.59099216355,77587.12948407287,TASK2
2026-04-28T11:13:11.090+00:00,1297,95858,64038.61958248849,61244.29389766382,131902.20378663586,94951.9538822119,107415.71127363578,93961.14575399707,169959.46853869778,77588.13531257336,TASK2
2026-04-28T11:13:11.090+00:00,1297,95859,64038.418416788394,61243.55629009679,131901.19795813537,94951.75271651181,107414.16900326835,93958.79882082927,169956.31694272958,77587.93414687326,TASK2
2026-04-28T11:13:11.090+00:00,1297,95860,64039.759521455715,61243.55629009679,131900.99679243527,94950.74688801132,107413.6996166348,93958.3294341957,169953.43356769485,77586.12365557239,TASK2
2026-04-28T11:13:11.090+00:00,1297,95861,64040.83240518957,61241.20935692899,131901.53323430222,94948.93639671044,107414.23605850173,93957.59182662868,169952.42773919436,77582.43561773725,TASK2
2026-04-28T11:13:11.090+00:00,1297,95862,64041.368847056496,61244.696229064015,131902.33789710258,94950.27750137776,107413.4984509347,93958.39648942907,169951.42191069387,77576.60181243443,TASK2
2026-04-28T11:13:11.090+00:00,1297,95863,64038.75369295522,61248.71954306597,131902.13673140248,94951.61860604507,107413.02906430114,93960.81047783024,169952.49479442774,77580.35690550291,TASK2
2026-04-28T11:13:11.090+00:00,1297,95864,64040.89946042294,61248.98776399944,131902.40495233596,94950.07633567766,107413.02906430114,93961.61514063063,169953.83589909505,77584.9166613718,TASK2
2026-04-28T11:13:11.090+00:00,1297,95865,64041.704123223324,61245.56794709777,131901.66734476894,94947.4611815764,107411.21857300027,93960.8775330636,169955.71344562928,77588.67175444029,TASK2
2026-04-28T11:13:11.090+00:00,1297,95866,64040.9665156563,61244.830339530745,131901.19795813537,94946.18713214244,107412.29145673412,93960.67636736351,169955.98166656276,77585.78837940555,TASK2
2026-04-28T11:13:11.090+00:00,1297,95867,64038.88780342196,61246.171444198066,131900.72857150182,94946.4553530759,107412.82789860104,93961.21280923043,169955.78050086266,77583.97788810467,TASK2
2026-04-28T11:13:11.090+00:00,1297,95868,64035.19976558683,61249.12187446617,131898.91808020094,94946.2541873758,107411.01740730017,93959.13409699609,169953.70178862833,77583.24028053765,TASK2
2026-04-28T11:13:11.090+00:00,1297,95869,64037.07731212107,61249.390095399634,131897.91225170044,94945.78480074224,107411.82207010055,93959.13409699609,169953.23240199476,77585.38604800536,TASK2
2026-04-28T11:13:11.090+00:00,1297,95870,64037.07731212107,61247.57960409875,131900.32624010163,94946.58946354264,107413.96783756827,93961.81630633073,169955.37816946246,77590.75046667462,TASK2
2026-04-28T11:13:11.090+00:00,1297,95871,64037.88197492147,61248.92070876607,131902.74022850278,94946.58946354264,107414.50427943519,93959.73759409638,169956.98749506325,77593.9691178762,TASK2
2026-04-28T11:13:11.090+00:00,1297,95872,64039.22307958879,61253.21224370149,131903.00844943625,94947.12590540956,107413.23023000124,93958.19532372897,169957.52393693017,77593.7679521761,TASK2
2026-04-28T11:13:11.090+00:00,1297,95873,64041.368847056496,61258.57666237077,131904.8859959705,94950.6127775446,107414.30311373509,93960.07287026322,169957.79215786365,77587.12948407287,TASK2
2026-04-28T11:13:11.090+00:00,1297,95874,64042.97817265728,61259.381325171154,131907.03176343822,94952.7585450123,107417.2535440032,93962.21863773093,169958.59682066404,77586.66009743931,TASK2
2026-04-28T11:13:11.090+00:00,1297,95875,64043.24639359074,61259.91776703808,131907.56820530514,94954.09964967961,107417.0523783031,93962.75507959785,169956.51810842968,77582.97205960419,TASK2
2026-04-28T11:13:11.090+00:00,1297,95876,64042.24056509025,61262.59997637272,131907.56820530514,94955.97719621386,107416.31477073608,93964.36440519863,169955.24405899574,77583.50850147111,TASK2
2026-04-28T11:13:11.090+00:00,1297,95877,64045.45921629182,61258.37549667067,131908.64108903898,94951.21627464489,107416.851212603,93962.82213483122,169952.89712582793,77580.35690550291,TASK2
2026-04-28T11:13:11.090+00:00,1297,95878,64041.234736589766,61258.911938537596,131906.29415587118,94949.67400427746,107414.77250036865,93963.09035576468,169953.16534676138,77583.57555670447,TASK2
2026-04-28T11:13:11.090+00:00,1297,95879,64042.30762032362,61258.44255190403,131906.29415587118,94949.67400427746,107414.57133466855,93961.54808539727,169952.42773919436,77585.18488230526,TASK2
2026-04-28T11:13:11.090+00:00,1297,95880,64043.112283124006,61257.704944337005,131907.09881867157,94948.66817577697,107417.2535440032,93962.35274819765,169952.96418106128,77586.25776603911,TASK2
2026-04-28T11:13:11.090+00:00,1297,95881,64040.7653499562,61256.43089490305,131906.89765297147,94948.66817577697,107418.05820680359,93964.49851566537,169954.84172759554,77588.93997537375,TASK2
2026-04-28T11:13:11.090+00:00,1297,95882,64038.68663772186,61257.771999570374,131904.81894073714,94948.66817577697,107418.05820680359,93964.76673659883,169956.18283226286,77590.54930097453,TASK2
2026-04-28T11:13:11.090+00:00,1297,95883,64037.41258828791,61259.113104237695,131903.54489130317,94947.93056820995,107417.32059923655,93963.22446623142,169956.98749506325,77593.23151030917,TASK2
2026-04-28T11:13:11.090+00:00,1297,95884,64037.41258828791,61260.990650771935,131903.34372560307,94947.4611815764,107416.851212603,93962.21863773093,169956.98749506325,77595.64549871034,TASK2
2026-04-28T11:13:11.090+00:00,1297,95885,64041.704123223324,61260.990650771935,131905.22127213734,94947.72940250985,107418.46053820378,93963.8279633317,169958.0603787971,77597.52304524458,TASK2
2026-04-28T11:13:11.090+00:00,1297,95886,64039.893631922445,61259.180159471056,131905.75771400426,94947.72940250985,107419.26520100418,93964.6326261321,169959.66970439788,77598.59592897844,TASK2
2026-04-28T11:13:11.090+00:00,1297,95887,64041.77117845669,61261.057706005304,131906.56237680465,94948.53406531025,107419.06403530408,93964.431460432,169961.8154718656,77599.40059177883,TASK2
2026-04-28T11:13:11.090+00:00,1297,95888,64043.64872499094,61264.008136273405,131906.09299017108,94950.4116118445,107419.06403530408,93965.50434416585,169960.27320149817,77591.95746087522,TASK2
2026-04-28T11:13:11.090+00:00,1297,95889,64043.98400115777,61264.4104676736,131905.42243783743,94951.68566127845,107417.2535440032,93967.91833256703,169958.73093113076,77589.20819630721,TASK2
2026-04-28T11:13:11.090+00:00,1297,95890,64042.17350985689,61262.06353450579,131904.41660933694,94949.6069490441,107417.0523783031,93966.10784126614,169959.26737299768,77590.28108004107,TASK2
2026-04-28T11:13:11.090+00:00,1297,95891,64042.70995172382,61261.59414787223,131905.48949307078,94947.79645774321,107417.58882017003,93963.22446623142,169957.99332356374,77587.93414687326,TASK2
2026-04-28T11:13:11.090+00:00,1297,95892,64041.704123223324,61264.54457814033,131905.28832737068,94947.79645774321,107416.31477073608,93963.49268716488,169958.2615444972,77590.07991434097,TASK2
2026-04-28T11:13:11.090+00:00,1297,95893,64040.16185285591,61266.15390374111,131904.81894073714,94948.33289961015,107416.11360503598,93968.05244303375,169959.33442823106,77590.88457714136,TASK2
2026-04-28T11:13:11.090+00:00,1297,95894,64040.9665156563,61263.53874963984,131905.62360353753,94947.59529204312,107419.33225623754,93968.32066396723,169959.87087009798,77589.07408584048,TASK2
2026-04-28T11:13:11.090+00:00,1297,95895,64041.234736589766,61265.684517107555,131905.42243783743,94947.59529204312,107419.13109053744,93968.58888490069,169959.13326253096,77588.06825734,TASK2
2026-04-28T11:13:11.090+00:00,1297,95896,64042.57584125708,61269.70783110951,131905.42243783743,94948.66817577697,107418.92992483734,93969.66176863454,169958.93209683086,77589.94580387425,TASK2
2026-04-28T11:13:11.090+00:00,1297,95897,64041.570012756594,61270.24427297644,131905.69065877088,94947.66234727649,107419.73458763774,93969.66176863454,169960.27320149817,77592.89623414233,TASK2
2026-04-28T11:13:11.090+00:00,1297,95898,64040.5641842561,61269.77488634287,131904.68483027042,94945.04719317521,107418.72875913724,93966.24195173288,169959.26737299768,77592.15862657531,TASK2
2026-04-28T11:13:11.090+00:00,1297,95899,64042.44173079035,61270.3113282098,131903.94722270337,94944.57780654165,107416.91826783636,93965.50434416585,169955.84755609604,77589.27525154057,TASK2
2026-04-28T11:13:11.090+00:00,1297,95900,64040.89946042294,61271.65243287712,131903.47783606983,94945.6506902755,107417.18648876983,93966.84544883318,169955.84755609604,77592.22568180868,TASK2
2026-04-28T11:13:11.090+00:00,1297,95901,64040.43007378937,61272.45709567751,131905.35538260406,94948.60112054361,107420.4051399714,93968.99121630088,169958.2615444972,77594.63967020986,TASK2
2026-04-28T11:13:11.425+00:00,1298,95902,64043.64872499094,61274.066421278294,131906.96470820485,94949.405783344,107421.47802370525,93968.99121630088,169957.52393693017,77592.82917890897,TASK2
2026-04-28T11:13:11.425+00:00,1298,95903,64042.37467555698,61274.334642211754,131905.42243783743,94949.2046176439,107419.13109053744,93968.79005060079,169958.0603787971,77596.58427197747,TASK2
2026-04-28T11:13:11.425+00:00,1298,95904,64043.44755929084,61275.943967812535,131905.69065877088,94950.0092804443,107420.47219520475,93969.3264924677,169958.0603787971,77595.04200161005,TASK2
2026-04-28T11:13:11.425+00:00,1298,95905,64044.25222209123,61278.08973528025,131906.22710063783,94951.35038511161,107420.47219520475,93970.39937620156,169956.78632936315,77594.03617310956,TASK2
2026-04-28T11:13:11.425+00:00,1298,95906,64046.39798955894,61278.35795621371,131906.49532157127,94951.14921941151,107420.47219520475,93972.27692273581,169956.58516366305,77593.83500740946,TASK2
2026-04-28T11:13:11.425+00:00,1298,95907,64045.123940124984,61279.1626190141,131905.22127213734,94950.4116118445,107419.46636670426,93972.07575703571,169956.58516366305,77594.90789114332,TASK2
2026-04-28T11:13:11.425+00:00,1298,95908,64043.045227890645,61279.96728181449,131903.67900176992,94950.4116118445,107417.92409633685,93971.33814946869,169954.5064514287,77592.82917890897,TASK2
2026-04-28T11:13:11.425+00:00,1298,95909,64042.57584125708,61278.961453314005,131904.48366457032,94950.4116118445,107417.45470970329,93970.06410003474,169953.23240199476,77588.60469920692,TASK2
2026-04-28T11:13:11.425+00:00,1298,95910,64042.37467555698,61278.760287613906,131906.29415587118,94952.28915837874,107419.06403530408,93971.20403900195,169957.859213097,77596.04783011053,TASK2
2026-04-28T11:13:11.425+00:00,1298,95911,64045.32510582508,61285.73403188396,131905.28832737068,94956.04425144722,107417.78998587013,93976.30023673776,169955.24405899574,77594.23733880966,TASK2
2026-04-28T11:13:11.425+00:00,1298,95912,64046.39798955894,61291.90311335363,131904.81894073714,94958.4582398484,107416.78415736964,93979.7871088728,169949.67847462636,77585.98954510565,TASK2
2026-04-28T11:13:11.425+00:00,1298,95913,64044.58749825806,61290.89728485314,131904.34955410357,94958.4582398484,107416.31477073608,93980.85999260665,169948.40442519242,77586.79420790604,TASK2
2026-04-28T11:13:11.425+00:00,1298,95914,64045.66038199191,61292.238389520455,131905.15421690396,94958.99468171532,107418.19231727031,93983.00576007436,169947.93503855885,77590.28108004107,TASK2
2026-04-28T11:13:11.425+00:00,1298,95915,64049.41547506041,61292.77483138738,131908.90930997246,94957.72063228137,107420.33808473803,93979.85416410616,169948.73970135924,77592.96328937571,TASK2
2026-04-28T11:13:11.425+00:00,1298,95916,64052.09768439504,61295.45704072202,131910.51863557324,94956.71480378088,107420.33808473803,93976.97078907142,169949.27614322616,77596.18194057727,TASK2
2026-04-28T11:13:11.425+00:00,1298,95917,64049.750751227235,61297.066366322804,131909.24458613928,94955.17253341347,107419.33225623754,93975.16029777055,169946.66098912488,77593.03034460907,TASK2
2026-04-28T11:13:11.425+00:00,1298,95918,64049.750751227235,61297.60280818973,131907.97053670534,94953.09382117912,107419.13109053744,93972.54514366928,169942.97295128976,77586.39187650585,TASK2
2026-04-28T11:13:11.425+00:00,1298,95919,64051.360076828016,61293.37832848768,131908.23875763878,94950.74688801132,107419.66753240436,93969.66176863454,169941.16245998887,77587.19653930624,TASK2
2026-04-28T11:13:11.425+00:00,1298,95920,64050.08602739406,61290.22673251948,131907.50115007177,94949.74105951084,107418.66170390388,93969.66176863454,169939.62018962146,77587.73298117316,TASK2
2026-04-28T11:13:11.425+00:00,1298,95921,64050.89069019446,61289.75734588592,131907.50115007177,94948.46701007689,107418.66170390388,93968.65594013405,169939.41902392136,77584.84960613844,TASK2
2026-04-28T11:13:11.425+00:00,1298,95922,64050.42130356089,61293.51243895441,131907.29998437167,94950.07633567766,107417.92409633685,93969.46060293444,169938.94963728782,77582.23445203716,TASK2
2026-04-28T11:13:11.425+00:00,1298,95923,64047.53792852616,61296.731090155976,131905.22127213734,94949.07050717717,107413.6996166348,93967.3818907001,169935.2615994527,77576.66886766779,TASK2
2026-04-28T11:13:11.425+00:00,1298,95924,64049.14725412694,61295.72526165548,131902.60611803606,94945.91891120898,107411.35268346699,93962.88919006458,169929.69601508332,77570.83506236495,TASK2
2026-04-28T11:13:11.425+00:00,1298,95925,64049.14725412694,61293.11010755421,131902.13673140248,94944.1084199081,107409.54219216612,93962.41980343102,169928.1537447159,77569.561012931,TASK2
2026-04-28T11:13:11.425+00:00,1298,95926,64050.75657972773,61293.914770354604,131900.86268196855,94942.83437047414,107404.51304966367,93963.22446623142,169924.1974859473,77563.19076576123,TASK2
2026-04-28T11:13:11.425+00:00,1298,95927,64045.45921629182,61296.865200622706,131897.97930693382,94942.09676290711,107400.82501182855,93962.21863773093,169920.24122717872,77561.11205352689,TASK2
2026-04-28T11:13:11.425+00:00,1298,95928,64042.84406219055,61294.78648838836,131895.90059469946,94938.67694600545,107399.5509623946,93957.72593709541,169917.08963121052,77561.38027446036,TASK2
2026-04-28T11:13:11.425+00:00,1298,95929,64039.69246622235,61294.58532268826,131894.0901033986,94937.13467563804,107397.47225016025,93955.64722486107,169913.13337244192,77558.49689942562,TASK2
2026-04-28T11:13:11.425+00:00,1298,95930,64039.49130052225,61295.389985488655,131893.8889376985,94935.86062620408,107395.3935379259,93956.72010859492,169908.90889273988,77557.49107092513,TASK2
2026-04-28T11:13:11.425+00:00,1298,95931,64042.70995172382,61293.31127325431,131894.42537956542,94935.39123957053,107397.00286352668,93959.40231792956,169906.2937386386,77557.7592918586,TASK2
2026-04-28T11:13:11.425+00:00,1298,95932,64041.704123223324,61292.037223820356,131894.22421386532,94934.11719013657,107397.80752632707,93957.59182662868,169906.0925729385,77554.6076958904,TASK2
2026-04-28T11:13:11.425+00:00,1298,95933,64039.08896912205,61290.763174386404,131891.60905976404,94933.11136163608,107396.53347689312,93955.24489346087,169907.16545667237,77558.09456802542,TASK2
2026-04-28T11:13:11.425+00:00,1298,95934,64040.16185285591,61292.64072092065,131891.60905976404,94932.37375406906,107396.53347689312,93955.04372776077,169907.16545667237,77563.72720762817,TASK2
2026-04-28T11:13:11.425+00:00,1298,95935,64043.045227890645,61294.9205988551,131894.35832433205,94934.6536320035,107400.42268042835,93958.99998652936,169911.2558259077,77567.54935593002,TASK2
2026-04-28T11:13:11.425+00:00,1298,95936,64046.26387909221,61300.285017524366,131897.84519646707,94939.48160880584,107402.83666882952,93963.02330053132,169913.4015933754,77564.93420182876,TASK2
2026-04-28T11:13:11.425+00:00,1298,95937,64047.33676282606,61303.503668725934,131899.45452206786,94943.23670187434,107403.90955256337,93967.31483546674,169915.27913990963,77567.34819022992,TASK2
2026-04-28T11:13:11.425+00:00,1298,95938,64044.45338779133,61305.64943619364,131897.10758890005,94942.4990943073,107401.56261939557,93966.30900696624,169911.32288114107,77563.92837332826,TASK2
2026-04-28T11:13:11.425+00:00,1298,95939,64044.45338779133,61304.91182862662,131896.90642319995,94939.3474983391,107399.75212809468,93963.69385286498,169907.36662237247,77561.84966109392,TASK2
2026-04-28T11:13:11.425+00:00,1298,95940,64047.13559712596,61305.44827049354,131897.44286506687,94939.61571927258,107400.28856996162,93964.76673659883,169906.62901480542,77559.77094885957,TASK2
2026-04-28T11:13:11.425+00:00,1298,95941,64048.74492272675,61301.22379079149,131898.7839697342,94939.14633263902,107401.62967462893,93965.57139939922,169910.92054974087,77563.79426286153,TASK2
2026-04-28T11:13:11.425+00:00,1298,95942,64045.32510582508,61301.76023265842,131899.58863253458,94939.68277450594,107402.70255836278,93967.180725,169913.33453814202,77567.01291406309,TASK2
2026-04-28T11:13:11.425+00:00,1298,95943,64042.70995172382,61305.247104793445,131898.85102496756,94941.56032104019,107401.96495079577,93969.59471340118,169913.13337244192,77568.35401873042,TASK2
2026-04-28T11:13:11.425+00:00,1298,95944,64042.24056509025,61306.856430394226,131896.2358708663,94942.36498384058,107400.69090136181,93971.47225993541,169912.93220674183,77569.96334433119,TASK2
2026-04-28T11:13:11.425+00:00,1298,95945,64041.234736589766,61311.41618626311,131896.0347051662,94944.51075130829,107400.22151472825,93972.81336460274,169915.61441607648,77576.13242580085,TASK2
2026-04-28T11:13:11.425+00:00,1298,95946,64042.57584125708,61314.90305839814,131897.37580983352,94947.99762344331,107401.02617752863,93977.10489953816,169915.1450294429,77576.66886766779,TASK2
2026-04-28T11:13:11.425+00:00,1298,95947,64042.84406219055,61314.70189269804,131898.18047263392,94949.07050717717,107402.36728219596,93980.05532980626,169916.21791317678,77578.54641420204,TASK2
2026-04-28T11:13:11.425+00:00,1298,95948,64043.64872499094,61317.38410203268,131900.32624010163,94950.4116118445,107404.24482873021,93981.9328763405,169918.63190157793,77580.42396073628,TASK2
2026-04-28T11:13:11.425+00:00,1298,95949,64044.18516685787,61316.914715399114,131900.32624010163,94950.94805371141,107406.92703806484,93982.20109727397,169919.97300624524,77584.7154956717,TASK2
2026-04-28T11:13:11.425+00:00,1298,95950,64044.18516685787,61316.713549699016,131902.47200756933,94952.02093744527,107411.48679393373,93985.687969409,169922.11877371295,77590.88457714136,TASK2
2026-04-28T11:13:11.425+00:00,1298,95951,64047.67203899289,61320.200421834044,131905.42243783743,94953.3620421126,107415.24188700222,93987.29729500978,169921.38116614593,77589.87874864087,TASK2
2026-04-28T11:13:11.425+00:00,1298,95952,64047.940259926356,61323.68729396907,131905.22127213734,94954.97136771337,107416.0465498026,93987.83373687671,169921.38116614593,77589.40936200731,TASK2
2026-04-28T11:13:11.425+00:00,1298,95953,64048.20848085982,61323.217907335515,131905.75771400426,94956.3124723807,107416.31477073608,93989.97950434442,169920.64355857891,77589.94580387425,TASK2
2026-04-28T11:13:11.425+00:00,1298,95954,64049.8178064606,61325.095453869755,131907.6352605385,94956.3124723807,107417.38765446993,93990.24772527788,169920.64355857891,77590.75046667462,TASK2
2026-04-28T11:13:11.425+00:00,1298,95955,64054.377562329486,61326.436558537076,131910.5856908066,94957.65357704801,107420.60630567149,93990.51594621134,169921.98466324623,77591.55512947502,TASK2
2026-04-28T11:13:11.425+00:00,1298,95956,64053.37173382899,61324.08962536927,131911.12213267354,94957.18419041445,107420.13691903793,93990.78416714481,169923.0575469801,77593.1644550758,TASK2
2026-04-28T11:13:11.425+00:00,1298,95957,64048.87903319348,61325.162509103124,131909.31164137265,94957.45241134791,107419.93575333784,93991.05238807827,169923.8622097805,77593.43267600927,TASK2
2026-04-28T11:13:11.425+00:00,1298,95958,64051.02480066119,61328.91760217161,131908.84225473908,94957.72063228137,107419.93575333784,93990.04655957778,169923.6610440804,77595.57844347697,TASK2
2026-04-28T11:13:11.425+00:00,1298,95959,64055.04811466314,61329.18582310508,131911.79268500718,94956.98302471435,107422.88618360594,93991.38766424509,169927.9525790158,77601.74752494664,TASK2
2026-04-28T11:13:11.425+00:00,1298,95960,64057.998544931244,61328.448215538054,131914.74311527528,94958.05590844821,107426.37305574096,93994.60631544667,169931.43945115083,77604.16151334782,TASK2
2026-04-28T11:13:11.425+00:00,1298,95961,64055.38339082997,61330.057541138834,131915.27955714223,94961.27455964977,107427.71416040827,93997.82496664823,169934.12166048546,77607.64838548284,TASK2
2026-04-28T11:13:11.425+00:00,1298,95962,64056.52332979719,61336.2266226085,131919.10170544407,94967.37658588607,107429.6587621759,94003.12233008414,169936.26742795316,77610.39765005084,TASK2
2026-04-28T11:13:11.425+00:00,1298,95963,64057.59621353105,61339.445273810066,131920.17458917794,94967.37658588607,107430.19520404282,94004.73165568491,169934.4569366523,77610.6658709843,TASK2
2026-04-28T11:13:11.425+00:00,1298,95964,64059.741980998755,61341.05459941085,131921.51569384526,94968.98591148684,107431.8045296436,94006.60920221916,169934.2557709522,77610.6658709843,TASK2
2026-04-28T11:13:11.425+00:00,1298,95965,64061.35130659954,61340.58521277728,131923.3932403795,94970.0587952207,107434.21851804477,94009.2914115538,169932.98172151824,77610.4647052842,TASK2
2026-04-28T11:13:11.425+00:00,1298,95966,64061.150140899445,61341.121654644216,131923.66146131296,94970.32701615417,107434.01735234467,94012.2418418219,169931.17123021735,77607.58133024948,TASK2
2026-04-28T11:13:11.425+00:00,1298,95967,64060.41253333242,61343.53564304538,131922.387411879,94969.32118765368,107433.01152384418,94010.43135052102,169930.7018435838,77606.57550174899,TASK2
2026-04-28T11:13:11.425+00:00,1298,95968,64062.29007986666,61343.53564304538,131922.387411879,94968.04713821973,107433.54796571111,94008.35263828668,169929.1595732164,77607.11194361592,TASK2
2026-04-28T11:13:11.425+00:00,1298,95969,64063.63118453398,61345.41318957963,131922.65563281247,94970.4611266209,107434.35262851151,94010.49840575439,169929.42779414984,77609.52593201709,TASK2
2026-04-28T11:13:11.425+00:00,1298,95970,64065.24051013476,61346.217852380025,131925.06962121365,94971.80223128822,107435.69373317882,94011.8395104217,169931.03711975063,77612.47636228519,TASK2
2026-04-28T11:13:11.425+00:00,1298,95971,64067.386277602476,61346.75429424695,131927.21538868136,94972.33867315514,107437.57127971307,94012.6441732221,169933.71932908526,77615.96323442021,TASK2
2026-04-28T11:13:11.425+00:00,1298,95972,64069.26382413672,61346.55312854685,131929.6293770825,94971.60106558813,107439.98526811424,94013.98527788941,169937.2062012203,77620.5229902891,TASK2
2026-04-28T11:13:11.425+00:00,1298,95973,64063.43001883388,61346.08374191329,131927.2824439147,94969.25413242032,107438.44299774682,94011.90656565507,169937.2062012203,77620.5229902891,TASK2
2026-04-28T11:13:11.425+00:00,1298,95974,64062.960632200324,61346.08374191329,131926.81305728116,94968.78474578675,107439.78410241414,94011.70539995497,169936.46859365326,77621.05943215602,TASK2
2026-04-28T11:13:11.425+00:00,1298,95975,64066.71572526881,61345.61435527973,131930.56815034966,94969.32118765368,107443.00275361571,94011.50423425487,169936.46859365326,77620.05360365554,TASK2
2026-04-28T11:13:11.425+00:00,1298,95976,64068.86149273652,61349.10122741476,131931.6410340835,94969.12002195358,107444.61207921649,94012.30889705526,169935.46276515277,77619.04777515505,TASK2
2026-04-28T11:13:11.830+00:00,1299,95977,64067.855664236034,61348.63184078119,131931.90925501697,94969.65646382052,107444.88030014995,94013.65000172259,169934.72515758575,77619.31599608851,TASK2
2026-04-28T11:13:11.830+00:00,1299,95978,64065.77695200169,61346.82134948031,131931.4398683834,94969.18707718694,107443.33802978254,94013.18061508902,169935.2615994527,77622.26642635661,TASK2
2026-04-28T11:13:11.830+00:00,1299,95979,64066.58161480208,61350.30822161534,131931.4398683834,94968.98591148684,107440.99109661473,94013.71705695595,169932.91466628487,77622.26642635661,TASK2
2026-04-28T11:13:11.830+00:00,1299,95980,64067.654498535936,61352.45398908305,131932.7809730507,94970.59523708763,107442.06398034858,94015.05816162327,169929.22662844975,77615.62795825339,TASK2
2026-04-28T11:13:11.830+00:00,1299,95981,64069.26382413672,61352.25282338296,131934.12207771803,94970.39407138753,107446.62373621747,94014.32055405625,169929.22662844975,77615.62795825339,TASK2
2026-04-28T11:13:11.830+00:00,1299,95982,64066.112228168524,61349.10122741476,131933.65269108448,94969.38824288704,107446.62373621747,94015.12521685663,169931.104174984,77619.65127225535,TASK2
2026-04-28T11:13:11.830+00:00,1299,95983,64068.25799563623,61350.44233208208,131933.65269108448,94968.11419345309,107445.61790771698,94016.1981005905,169930.63478835043,77622.06526065651,TASK2
2026-04-28T11:13:11.830+00:00,1299,95984,64070.940204970866,61353.66098328364,131933.4515253844,94968.11419345309,107446.69079145083,94018.88030992512,169930.9030092839,77624.74746999115,TASK2
2026-04-28T11:13:11.830+00:00,1299,95985,64070.73903927077,61350.50938731544,131933.71974631786,94966.57192308568,107447.49545425123,94016.53337675732,169932.24411395122,77627.42967932578,TASK2
2026-04-28T11:13:11.830+00:00,1299,95986,64069.196768903355,61349.23533788149,131934.25618818478,94965.83431551864,107449.104779852,94014.45466452297,169934.12166048546,77632.25765612813,TASK2
2026-04-28T11:13:11.830+00:00,1299,95987,64067.386277602476,61354.867977484224,131934.05502248468,94967.71186205289,107449.37300078548,94014.72288545645,169935.46276515277,77634.67164452931,TASK2
2026-04-28T11:13:11.830+00:00,1299,95988,64068.99560320326,61354.398590850666,131935.396127152,94967.5106963528,107448.9036141519,94016.06399012376,169937.07209075356,77636.81741199702,TASK2
2026-04-28T11:13:11.830+00:00,1299,95989,64071.409591604424,61353.66098328364,131938.3465574201,94969.12002195358,107450.24471881923,94019.28264132532,169938.68141635435,77637.08563293048,TASK2
2026-04-28T11:13:11.830+00:00,1299,95990,64071.409591604424,61355.53852981789,131937.60894985308,94970.99756848783,107449.77533218566,94021.16018785957,169939.21785822127,77638.15851666433,TASK2
2026-04-28T11:13:11.830+00:00,1299,95991,64071.67781253789,61354.80092225086,131937.60894985308,94969.45529812042,107449.03772461864,94021.42840879303,169937.13914598693,77637.15268816384,TASK2
2026-04-28T11:13:11.830+00:00,1299,95992,64072.482475338285,61355.60558505125,131938.9500545204,94968.44946961993,107450.37882928595,94021.96485065996,169938.21202972077,77640.3713393654,TASK2
2026-04-28T11:13:11.830+00:00,1299,95993,64073.89063523897,61363.98748922199,131941.0958219881,94972.13750745505,107453.2622043207,94026.32344082874,169940.82718382205,77644.5287638341,TASK2
2026-04-28T11:13:11.830+00:00,1299,95994,64073.89063523897,61365.32859388931,131940.894656288,94973.2103911889,107452.79281768714,94027.3963245626,169941.09540475553,77648.55207783605,TASK2
2026-04-28T11:13:11.830+00:00,1299,95995,64076.84106550707,61363.24988165496,131942.77220282223,94973.74683305583,107455.47502702176,94026.65871699557,169941.09540475553,77652.84361277147,TASK2
2026-04-28T11:13:11.830+00:00,1299,95996,64077.10928644053,61362.780495021405,131941.76637432174,94973.54566735573,107455.0056403882,94025.65288849508,169939.55313438812,77650.2284586702,TASK2
2026-04-28T11:13:11.830+00:00,1299,95997,64075.29879513965,61366.26736715643,131940.76054582128,94974.61855108959,107454.26803282119,94026.72577222894,169940.62601812195,77651.83778427099,TASK2
2026-04-28T11:13:11.830+00:00,1299,95998,64073.48830383877,61371.095343958776,131940.55938012118,94977.30076042423,107453.79864618761,94029.67620249704,169940.89423905543,77652.64244707137,TASK2
2026-04-28T11:13:11.830+00:00,1299,95999,64073.75652477224,61372.4364486261,131940.55938012118,94978.64186509154,107455.13975085494,94032.62663276514,169940.69307335533,77653.44710987176,TASK2
2026-04-28T11:13:11.830+00:00,1299,96000,64075.36585037302,61377.264425428446,131941.0958219881,94980.78763255925,107455.13975085494,94034.77240023285,169940.22368672176,77655.32465640601,TASK2
2026-04-28T11:13:11.830+00:00,1299,96001,64077.77983877419,61379.67841382961,131942.97336852233,94981.32407442619,107455.13975085494,94036.6499467671,169939.21785822127,77654.31882790552,TASK2
2026-04-28T11:13:11.830+00:00,1299,96002,64077.77983877419,61379.209027196055,131944.58269412312,94980.05002499223,107455.67619272186,94036.6499467671,169939.7543000882,77653.5812203385,TASK2
2026-04-28T11:13:11.830+00:00,1299,96003,64077.04223120717,61375.25276842747,131944.58269412312,94979.58063835866,107455.67619272186,94036.18056013354,169939.7543000882,77653.3800546384,TASK2
2026-04-28T11:13:11.830+00:00,1299,96004,64078.91977774141,61376.32565216132,131945.38735692351,94980.1170802256,107457.82196018957,94036.71700200046,169940.02252102166,77653.91649650532,TASK2
2026-04-28T11:13:11.830+00:00,1299,96005,64080.26088240873,61376.86209402825,131946.72846159083,94978.84303079164,107458.89484392344,94033.83362696573,169940.02252102166,77652.64244707137,TASK2
2026-04-28T11:13:11.830+00:00,1299,96006,64078.45039110785,61376.39270739468,131945.9908540238,94977.56898135769,107457.35257355601,94033.63246126563,169940.02252102166,77653.71533080522,TASK2
2026-04-28T11:13:11.830+00:00,1299,96007,64076.90812074043,61377.465591128544,131944.71680458984,94979.98296975886,107456.07852412206,94036.31467060026,169937.94380878733,77650.8319557705,TASK2
2026-04-28T11:13:11.830+00:00,1299,96008,64075.902292239945,61378.00203299547,131943.4427551559,94979.98296975886,107453.99981188771,94034.23595836593,169937.2062012203,77651.90483950435,TASK2
2026-04-28T11:13:11.830+00:00,1299,96009,64078.58450157458,61375.65509982766,131943.2415894558,94977.63603659105,107454.26803282119,94031.62080426465,169938.54730588762,77657.00103724016,TASK2
2026-04-28T11:13:11.830+00:00,1299,96010,64080.46204810883,61375.65509982766,131944.0462522562,94976.63020809056,107456.4138002889,94033.4983507989,169939.88841055494,77661.56079310903,TASK2
2026-04-28T11:13:11.830+00:00,1299,96011,64079.187998674875,61380.21485569654,131944.31447318968,94978.23953369135,107458.02312588967,94036.18056013354,169938.07791925405,77656.79987154006,TASK2
2026-04-28T11:13:11.830+00:00,1299,96012,64078.18217017438,61383.43350689811,131944.58269412312,94979.58063835866,107458.02312588967,94037.52166480085,169936.8038698201,77653.64827557186,TASK2
2026-04-28T11:13:11.830+00:00,1299,96013,64076.90812074043,61384.50639063196,131943.8450865561,94980.92174302599,107458.5595677566,94041.5449788028,169939.48607915474,77655.52582210611,TASK2
2026-04-28T11:13:11.830+00:00,1299,96014,64079.456219608335,61387.85915230026,131944.98502552332,94983.33573142716,107461.97938465826,94045.23301663794,169942.50356465622,77661.76195880913,TASK2
2026-04-28T11:13:11.830+00:00,1299,96015,64084.82063827761,61390.541361634896,131946.86257205758,94985.2132779614,107463.85693119251,94047.11056317217,169943.30822745658,77661.56079310903,TASK2
2026-04-28T11:13:11.830+00:00,1299,96016,64083.54658884366,61386.31688193284,131945.32030169014,94983.40278666052,107463.38754455895,94046.90939747207,169942.57061988956,77658.67741807431,TASK2
2026-04-28T11:13:11.830+00:00,1299,96017,64080.931434742386,61383.16528596464,131943.77803132273,94982.12873722657,107461.57705325806,94047.71406027247,169942.36945418947,77656.86692677342,TASK2
2026-04-28T11:13:11.830+00:00,1299,96018,64081.46787660931,61385.847495299284,131944.58269412312,94983.20162096042,107462.38171605846,94048.51872307286,169941.09540475553,77656.39754013986,TASK2
2026-04-28T11:13:11.830+00:00,1299,96019,64081.26671090922,61390.1390302347,131944.38152842302,94984.27450469427,107463.45459979231,94050.12804867365,169939.82135532156,77656.39754013986,TASK2
2026-04-28T11:13:11.830+00:00,1299,96020,64082.87603651,61391.48013490202,131943.91214178948,94984.8109465612,107462.18055035836,94049.92688297355,169938.81552682107,77658.00686574065,TASK2
2026-04-28T11:13:11.830+00:00,1299,96021,64084.75358304424,61390.20608546807,131944.98502552332,94984.34155992765,107465.39920155992,94051.26798764087,169941.49773615572,77661.22551694221,TASK2
2026-04-28T11:13:11.830+00:00,1299,96022,64086.63112957849,61391.27896920192,131946.32613019063,94984.60978086111,107467.8131899611,94052.07265044126,169938.61436112097,77656.7328163067,TASK2
2026-04-28T11:13:11.830+00:00,1299,96023,64087.435792378885,61394.49762040348,131945.0520807567,94983.60395236062,107465.73447772676,94049.18927540652,169932.78055581814,77653.84944127196,TASK2
2026-04-28T11:13:11.830+00:00,1299,96024,64086.69818481186,61394.49762040348,131943.2415894558,94981.79346105974,107462.85110269202,94049.45749633998,169929.89718078342,77653.64827557186,TASK2
2026-04-28T11:13:11.830+00:00,1299,96025,64085.69235631137,61393.76001283646,131941.43109815492,94979.7147488254,107461.84527419152,94049.2563306399,169929.1595732164,77654.98938023917,TASK2
2026-04-28T11:13:11.830+00:00,1299,96026,64082.27253940971,61393.55884713636,131938.27950218672,94978.7089203249,107461.1076666245,94048.51872307286,169927.3490819155,77653.71533080522,TASK2
2026-04-28T11:13:11.830+00:00,1299,96027,64080.46204810883,61396.77749833793,131938.07833648662,94979.24536219184,107460.63827999095,94048.31755737276,169927.88552378243,77658.54330760757,TASK2
2026-04-28T11:13:11.830+00:00,1299,96028,64079.99266147526,61401.60547514027,131939.1512202205,94981.39112965955,107460.43711429085,94048.31755737276,169928.42196564935,77659.34797040797,TASK2
2026-04-28T11:13:11.830+00:00,1299,96029,64083.74775454376,61400.33142570632,131941.02876675472,94981.92757152647,107460.97355615777,94048.31755737276,169927.1479162154,77657.53747910708,TASK2
2026-04-28T11:13:11.830+00:00,1299,96030,64086.69818481186,61402.47719317403,131941.2969876882,94983.53689712725,107461.24177709124,94049.92688297355,169926.4103086484,77659.95146750826,TASK2
2026-04-28T11:13:11.830+00:00,1299,96031,64086.69818481186,61405.15940250867,131942.6380923555,94984.07333899419,107462.3146608251,94050.46332484047,169926.67852958184,77661.29257217557,TASK2
2026-04-28T11:13:11.830+00:00,1299,96032,64086.228798178294,61404.6900158751,131943.17453422243,94982.79928956024,107462.58288175856,94048.92105447306,169926.67852958184,77658.67741807431,TASK2
2026-04-28T11:13:11.830+00:00,1299,96033,64085.22296967781,61405.494678675495,131942.7051475889,94983.33573142716,107460.23594859075,94048.92105447306,169926.94675051532,77661.89606927587,TASK2
2026-04-28T11:13:11.830+00:00,1299,96034,64086.83229527859,61408.981550810524,131943.50981038928,94986.0179407618,107462.113495125,94051.87148474116,169928.82429704955,77663.50539487666,TASK2
2026-04-28T11:13:11.830+00:00,1299,96035,64086.63112957849,61402.61130364076,131944.0462522562,94984.74389132785,107461.9123294249,94052.67614754156,169930.43362265034,77667.52870887861,TASK2
2026-04-28T11:13:11.830+00:00,1299,96036,64085.35708014454,61402.410137940664,131943.0404237557,94981.8605162931,107460.63827999095,94051.13387717413,169929.9642360168,77666.52288037812,TASK2
2026-04-28T11:13:11.830+00:00,1299,96037,64084.61947257751,61406.70167287608,131943.30864468918,94983.20162096042,107459.90067242392,94051.13387717413,169929.9642360168,77668.40042691237,TASK2
2026-04-28T11:13:11.830+00:00,1299,96038,64086.49701911176,61410.18854501111,131942.03459525522,94983.73806282735,107459.43128579036,94051.67031904106,169928.42196564935,77670.27797344662,TASK2
2026-04-28T11:13:11.830+00:00,1299,96039,64088.44162087937,61412.46842294555,131943.37569992253,94987.02376926228,107458.69367822334,94056.69946154351,169927.2149714488,77668.60159261247,TASK2
2026-04-28T11:13:11.830+00:00,1299,96040,64088.9780627463,61413.80952761287,131943.643920856,94987.02376926228,107457.68784972285,94057.23590341043,169925.13625921443,77666.25465944466,TASK2
2026-04-28T11:13:11.830+00:00,1299,96041,64090.58738834708,61417.56462068136,131945.2532464568,94987.02376926228,107458.7607334567,94054.62074930916,169923.32576791354,77661.22551694221,TASK2
2026-04-28T11:13:11.830+00:00,1299,96042,64090.11800171352,61415.217687513556,131944.51563888974,94984.94505702794,107457.75490495621,94052.54203707482,169924.3986516474,77665.78527281109,TASK2
2026-04-28T11:13:11.830+00:00,1299,96043,64086.16174294493,61415.01652181346,131943.2415894558,94983.67100759399,107458.02312588967,94054.95602547599,169926.0079772482,77671.14969148037,TASK2
2026-04-28T11:13:11.830+00:00,1299,96044,64085.42413537791,61414.54713517989,131941.43109815492,94984.20744946091,107457.55373925611,94056.56535107677,169924.4657068808,77672.49079614769,TASK2
2026-04-28T11:13:11.830+00:00,1299,96045,64088.64278657947,61415.083577046826,131941.43109815492,94986.35321692862,107458.3584020565,94058.17467667756,169925.27036968115,77676.24588921618,TASK2
2026-04-28T11:13:11.830+00:00,1299,96046,64086.83229527859,61419.64333291571,131940.96171152138,94987.9625425294,107458.1572363564,94061.66154881258,169926.34325341502,77680.26920321814,TASK2
2026-04-28T11:13:11.830+00:00,1299,96047,64087.63695807898,61420.98443758302,131943.10747898908,94988.7672053298,107460.03478289065,94064.34375814722,169925.87386678145,77679.26337471764,TASK2
2026-04-28T11:13:11.830+00:00,1299,96048,64088.44162087937,61424.47130971805,131944.18036272292,94989.84008906365,107460.57122475757,94064.34375814722,169924.5998173475,77679.06220901755,TASK2
2026-04-28T11:13:11.830+00:00,1299,96049,64090.31916741362,61426.61707718576,131944.18036272292,94990.37653093057,107460.37005905747,94062.26504591288,169922.78932604662,77680.9397555518,TASK2
2026-04-28T11:13:11.830+00:00,1299,96050,64091.9284930144,61426.885298119225,131944.98502552332,94990.91297279751,107460.90650092441,94062.53326684634,169921.78349754613,77679.1292642509,TASK2
2026-04-28T11:13:11.830+00:00,1299,96051,64091.45910638084,61426.885298119225,131944.51563888974,94990.44358616395,107460.90650092441,94063.33792964673,169922.31993941305,77680.20214798476,TASK2
2026-04-28T11:13:11.830+00:00,1299,96052,64090.721498813815,61430.103949320786,131945.0520807567,94993.66223736551,107461.17472185787,94066.02013898137,169924.73392781423,77682.61613638594,TASK2
2026-04-28T11:13:11.830+00:00,1299,96053,64091.25794068074,61433.05437958889,131945.5885226236,94995.53978389976,107460.97355615777,94067.09302271523,169925.53859061463,77684.22546198672,TASK2
2026-04-28T11:13:11.830+00:00,1299,96054,64091.79438254767,61434.931926123136,131945.5885226236,94996.07622576668,107460.77239045767,94067.36124364869,169926.87969528194,77685.03012478711,TASK2
2026-04-28T11:13:11.830+00:00,1299,96055,64092.599045348055,61432.85321388879,131945.8567435571,94993.99751353233,107461.3088323246,94067.62946458215,169928.7572418162,77686.6394503879,TASK2
2026-04-28T11:13:11.830+00:00,1299,96056,64092.397879647964,61431.04272258791,131946.66140635748,94994.80217633273,107462.9181579254,94070.57989485025,169929.83012555004,77685.90184282087,TASK2
2026-04-28T11:13:11.830+00:00,1299,96057,64088.44162087937,61435.066036589866,131945.655577857,94996.94794380043,107463.99104165925,94073.79854605181,169928.82429704955,77681.94558405229,TASK2
2026-04-28T11:13:11.830+00:00,1299,96058,64086.63112957849,61435.60247845679,131944.38152842302,94996.94794380043,107463.52165502567,94074.33498791874,169928.354910416,77684.35957245345,TASK2
2026-04-28T11:13:11.830+00:00,1299,96059,64089.313338913125,61433.25554528899,131944.91797028994,94996.21033623342,107463.52165502567,94075.4078716526,169929.42779414984,77688.91932832234,TASK2
2026-04-28T11:13:11.830+00:00,1299,96060,64091.45910638084,61437.54708022441,131946.7955168242,94997.81966183419,107463.78987595915,94078.09008098724,169932.37822441795,77695.088409792,TASK2
2026-04-28T11:13:11.830+00:00,1299,96061,64093.60487384855,61434.931926123136,131949.2095052254,94997.35027520063,107467.27674809417,94074.67026408557,169935.0604337526,77699.91638659434,TASK2
2026-04-28T11:13:11.830+00:00,1299,96062,64093.87309478201,61432.58499295533,131949.2095052254,94997.14910950053,107469.42251556188,94073.12799371815,169935.0604337526,77697.83767436001,TASK2
2026-04-28T11:13:11.830+00:00,1299,96063,64092.599045348055,61436.34008602382,131946.86257205758,94996.67972286697,107466.80736146061,94073.66443558509,169934.8592680525,77696.56362492606,TASK2
2026-04-28T11:13:11.830+00:00,1299,96064,64092.397879647964,61438.485853491526,131946.12496449053,94996.94794380043,107464.72864922626,94075.27376118586,169935.39570991942,77698.97761332722,TASK2
2026-04-28T11:13:11.830+00:00,1299,96065,64091.9284930144,61440.8998418927,131948.0025110248,94998.82549033468,107466.87441669397,94076.61486585319,169935.66393085287,77701.65982266187,TASK2
2026-04-28T11:13:11.830+00:00,1299,96066,64096.01886224972,61446.06309486188,131951.7576040933,95002.37941770308,107471.43417256286,94082.58278162275,169939.35196868802,77704.3420319965,TASK2
2026-04-28T11:13:11.830+00:00,1299,96067,64098.969292517824,61449.01352512998,131954.43981342792,95003.45230143693,107475.45748656482,94083.92388629007,169943.1070617565,77710.2428925327,TASK2
2026-04-28T11:13:11.830+00:00,1299,96068,64097.96346401733,61449.81818793037,131954.97625529484,95002.44647293644,107475.45748656482,94081.84517405572,169941.83301232255,77707.89595936489,TASK2
2026-04-28T11:13:11.830+00:00,1299,96069,64097.225856450306,61447.73947569603,131954.5068686613,95002.44647293644,107475.25632086472,94082.38161592266,169941.09540475553,77708.43240123182,TASK2
2026-04-28T11:13:11.830+00:00,1299,96070,64097.76229831723,61448.275917562954,131954.03748202772,95004.32401947069,107475.52454179818,94085.86848805768,169942.16828848937,77711.65105243339,TASK2
2026-04-28T11:13:11.830+00:00,1299,96071,64098.56696111763,61450.42168503066,131954.3057029612,95004.59224040415,107476.59742553203,94087.74603459192,169941.43068092235,77712.9921571007,TASK2
2026-04-28T11:13:11.830+00:00,1299,96072,64099.103402984554,61451.226347831056,131955.11036576156,95003.85463283713,107477.67030926589,94087.27664795837,169941.22951522225,77713.26037803416,TASK2
2026-04-28T11:13:11.830+00:00,1299,96073,64103.66315885344,61450.75696119749,131956.98791229582,95003.85463283713,107479.54785580013,94087.54486889183,169937.8096983206,77709.0358983321,TASK2
2026-04-28T11:13:11.830+00:00,1299,96074,64102.12088848602,61452.36628679827,131956.51852566225,95003.38524620357,107480.35251860053,94088.88597355915,169938.34614018752,77715.20497980178,TASK2
2026-04-28T11:13:11.830+00:00,1299,96075,64101.11505998553,61455.31671706637,131956.78674659572,95003.65346713703,107481.15718140092,94088.88597355915,169939.41902392136,77716.81430540256,TASK2
2026-04-28T11:13:11.830+00:00,1299,96076,64103.52904838671,61456.92604266715,131958.3960721965,95003.45230143693,107481.9618442013,94087.88014505866,169939.41902392136,77717.35074726949,TASK2
2026-04-28T11:13:12.141+00:00,1300,96077,64101.98677801929,61459.34003106833,131958.1949064964,95004.25696423733,107483.03472793516,94089.22124972598,169938.94963728782,77717.35074726949,TASK2
2026-04-28T11:13:12.141+00:00,1300,96078,64104.40076642046,61460.41291480218,131959.26779023025,95006.40273170503,107482.5653413016,94092.43990092754,169939.48607915474,77718.42363100334,TASK2
2026-04-28T11:13:12.141+00:00,1300,96079,64106.54653388817,61459.67530723516,131959.53601116373,95006.93917357195,107482.83356223506,94091.70229336052,169941.09540475553,77723.78804967261,TASK2
2026-04-28T11:13:12.141+00:00,1300,96080,64105.808926321144,61463.162179370185,131959.8042320972,95009.6213829066,107481.82773373458,94093.84806082823,169943.50939315668,77726.47025900726,TASK2
2026-04-28T11:13:12.141+00:00,1300,96081,64106.61358912154,61466.11260963829,131961.68177863144,95009.88960384006,107483.97350120229,94097.06671202979,169944.58227689055,77724.65976770637,TASK2
2026-04-28T11:13:12.141+00:00,1300,96082,64107.418251921925,61468.258377105994,131961.9499995649,95007.81089160572,107485.3146058696,94097.06671202979,169944.85049782402,77725.46443050676,TASK2
2026-04-28T11:13:12.141+00:00,1300,96083,64107.418251921925,61467.52076953897,131962.48644143183,95007.07328403869,107485.3146058696,94097.87137483018,169945.11871875747,77728.1466398414,TASK2
2026-04-28T11:13:12.141+00:00,1300,96084,64107.68647285539,61469.934757940144,131964.09576703262,95009.2190515064,107486.65571053693,94100.01714229789,169944.91755305737,77730.82884917603,TASK2
2026-04-28T11:13:12.141+00:00,1300,96085,64110.90512405695,61471.81230447439,131966.50975543377,95010.56015617373,107488.2650361377,94100.01714229789,169944.17994549035,77731.63351197643,TASK2
2026-04-28T11:13:12.141+00:00,1300,96086,64112.246228724274,61473.9580719421,131968.65552290148,95011.63303990758,107489.60614080502,94101.3582469652,169944.17994549035,77730.35946254247,TASK2
2026-04-28T11:13:12.141+00:00,1300,96087,64111.77684209071,61476.10383940981,131968.65552290148,95012.70592364144,107489.13675417146,94103.23579349945,169945.25282922422,77730.35946254247,TASK2
2026-04-28T11:13:12.141+00:00,1300,96088,64111.57567639062,61475.90267370971,131968.45435720138,95012.23653700786,107489.13675417146,94102.76640686589,169944.51522165717,77732.50523001018,TASK2
2026-04-28T11:13:12.141+00:00,1300,96089,64114.52610665871,61474.89684520922,131970.06368280217,95011.49892944084,107491.28252163916,94100.15125276463,169944.04583502363,77732.77345094364,TASK2
2026-04-28T11:13:12.141+00:00,1300,96090,64113.25205722476,61478.115496410785,131969.86251710207,95012.84003410816,107490.8131350056,94101.22413649848,169944.04583502363,77733.57811374404,TASK2
2026-04-28T11:13:12.141+00:00,1300,96091,64114.05672002515,61481.87058947928,131971.20362176938,95014.98580157587,107492.15423967292,94102.83346209925,169943.30822745658,77730.96295964277,TASK2
2026-04-28T11:13:12.141+00:00,1300,96092,64114.59316189208,61479.791877244934,131972.54472643672,95013.97997307539,107494.03178620717,94103.63812489965,169943.1070617565,77731.23118057623,TASK2
2026-04-28T11:13:12.141+00:00,1300,96093,64114.86138282555,61479.05426967791,131971.80711886968,95013.24236550835,107494.5682280741,94104.44278770004,169942.9058960564,77732.57228524356,TASK2
2026-04-28T11:13:12.141+00:00,1300,96094,64114.66021712545,61481.46825807908,131970.80129036919,95015.65635390954,107492.75773677322,94107.6614389016,169944.78344259065,77737.13204111243,TASK2
2026-04-28T11:13:12.141+00:00,1300,96095,64113.3861676915,61486.83267674836,131969.52724093525,95018.60678417762,107493.02595770669,94110.88009010316,169945.85632632452,77738.20492484629,TASK2
2026-04-28T11:13:12.141+00:00,1300,96096,64114.45905142535,61490.58776981685,131970.86834560256,95019.67966791149,107496.51282984171,94110.14248253615,169946.12454725796,77737.46731727927,TASK2
2026-04-28T11:13:12.141+00:00,1300,96097,64120.561077661645,61490.25249365002,131975.62926717155,95022.0266010793,107501.20669617732,94114.1657965381,169951.82424209407,77744.23989584923,TASK2
2026-04-28T11:13:12.141+00:00,1300,96098,64121.902182328966,61488.44200234914,131976.16570903847,95021.8254353792,107501.20669617732,94117.65266867312,169955.04289329564,77750.14075638542,TASK2
2026-04-28T11:13:12.141+00:00,1300,96099,64123.51150792975,61491.92887448417,131977.23859277234,95023.16654004651,107502.81602177811,94119.79843614083,169956.11577702948,77752.82296572006,TASK2
2026-04-28T11:13:12.141+00:00,1300,96100,64124.31617073014,61494.87930475227,131978.04325557273,95024.23942378037,107503.6206845785,94118.52438670688,169955.64639039594,77755.23695412122,TASK2
2026-04-28T11:13:12.141+00:00,1300,96101,64125.657275397454,61495.14752568573,131979.38436024004,95024.7758656473,107504.42534737888,94117.25033727293,169954.37234096197,77755.03578842114,TASK2
2026-04-28T11:13:12.141+00:00,1300,96102,64125.45610969736,61495.4157466192,131979.92080210696,95025.04408658076,107504.42534737888,94118.32322100678,169954.17117526187,77754.29818085411,TASK2
2026-04-28T11:13:12.141+00:00,1300,96103,64125.45610969736,61496.220409419584,131981.53012770775,95027.18985404847,107507.37577764699,94122.34653500874,169958.73093113076,77759.66259952338,TASK2
2026-04-28T11:13:12.141+00:00,1300,96104,64127.3336562316,61499.70728155461,131983.94411610893,95029.33562151618,107509.78976604817,94124.76052340992,169961.4131404654,77762.61302979148,TASK2
2026-04-28T11:13:12.141+00:00,1300,96105,64128.40653996546,61503.998816490035,131984.48055797585,95030.67672618349,107508.78393754768,94126.10162807723,169960.4073119649,77761.33898035753,TASK2
2026-04-28T11:13:12.141+00:00,1300,96106,64128.40653996546,61503.26120892301,131984.01117134228,95028.06157208222,107508.04632998064,94126.36984901069,169959.13326253096,77762.68008502485,TASK2
2026-04-28T11:13:12.141+00:00,1300,96107,64128.40653996546,61501.71893855559,131985.08405507615,95026.51930171481,107509.11921371451,94125.90046237713,169959.66970439788,77761.4060355909,TASK2
2026-04-28T11:13:12.141+00:00,1300,96108,64132.42985396741,61501.71893855559,131986.6933806769,95025.78169414778,107511.53320211568,94126.16868331059,169958.93209683086,77760.40020709041,TASK2
2026-04-28T11:13:12.141+00:00,1300,96109,64134.30740050166,61505.20581069062,131986.6933806769,95025.31230751422,107511.80142304914,94124.35819200972,169957.12160552997,77761.2048698908,TASK2
2026-04-28T11:13:12.141+00:00,1300,96110,64134.30740050166,61510.570229359895,131987.4980434773,95025.58052844768,107512.874306783,94122.54770070883,169956.6522188964,77761.74131175772,TASK2
2026-04-28T11:13:12.141+00:00,1300,96111,64129.54647893268,61510.570229359895,131986.49221497684,95025.84874938116,107512.40492014943,94123.08414257577,169958.2615444972,77767.64217229393,TASK2
2026-04-28T11:13:12.141+00:00,1300,96112,64135.44733946888,61505.809307790914,131989.7108661784,95024.03825808027,107515.623571351,94123.08414257577,169959.6026491645,77768.17861416086,TASK2
2026-04-28T11:13:12.141+00:00,1300,96113,64139.7388744043,61507.418633391695,131992.393075513,95024.30647901373,107517.50111788524,94124.96168911002,169958.0603787971,77763.68591352533,TASK2
2026-04-28T11:13:12.141+00:00,1300,96114,64142.42108373894,61508.49151712555,131993.73418018036,95025.37936274758,107519.11044348603,94126.57101471079,169957.32277123007,77763.48474782523,TASK2
2026-04-28T11:13:12.141+00:00,1300,96115,64140.61059243806,61510.90550552672,131993.26479354678,95026.72046741491,107519.37866441949,94126.83923564426,169958.6638758974,77766.16695715988,TASK2
2026-04-28T11:13:12.141+00:00,1300,96116,64139.06832207064,61511.97838926058,131991.99074411282,95027.5251302153,107518.90927778593,94127.10745657772,169959.2003177643,77770.45849209529,TASK2
2026-04-28T11:13:12.141+00:00,1300,96117,64139.33654300411,61511.97838926058,131992.7954069132,95027.05574358173,107521.05504525364,94129.78966591237,169959.2003177643,77771.26315489569,TASK2
2026-04-28T11:13:12.141+00:00,1300,96118,64141.683476171915,61517.87924979678,131994.8070639142,95029.40267674954,107522.59731562105,94134.34942178124,169959.6026491645,77773.07364619657,TASK2
2026-04-28T11:13:12.141+00:00,1300,96119,64142.4881389723,61520.02501726449,131995.07528484767,95031.28022328379,107522.86553655451,94135.95874738203,169960.4073119649,77775.7558555312,TASK2
2026-04-28T11:13:12.141+00:00,1300,96120,64144.09746457308,61522.170784732196,131996.9528313819,95032.88954888459,107524.74308308876,94137.03163111588,169961.7484166322,77777.9016229989,TASK2
2026-04-28T11:13:12.141+00:00,1300,96121,64145.70679017387,61523.78011033298,131998.83037791617,95035.0353163523,107527.69351335686,94140.78672418436,169965.5035097007,77783.26604166819,TASK2
2026-04-28T11:13:12.141+00:00,1300,96122,64144.70096167338,61523.57894463288,131997.82454941567,95034.0294878518,107526.68768485637,94140.04911661735,169968.18571903536,77787.28935567015,TASK2
2026-04-28T11:13:12.141+00:00,1300,96123,64146.0420663407,61527.334037701374,131996.81872091518,95033.56010121825,107526.21829822281,94139.57972998379,169967.17989053487,77786.0153062362,TASK2
2026-04-28T11:13:12.141+00:00,1300,96124,64147.38317100801,61529.74802610255,131996.3493342816,95032.55427271775,107526.48651915627,94140.65261371764,169964.02829456667,77783.13193120145,TASK2
2026-04-28T11:13:12.141+00:00,1300,96125,64148.72427567533,61532.162014503716,131999.2997645497,95034.431819252,107528.09584475706,94141.45727651803,169962.48602419926,77780.51677710019,TASK2
2026-04-28T11:13:12.141+00:00,1300,96126,64149.79715940919,61526.32820920088,132002.51841575128,95033.96243261844,107532.38737969247,94141.25611081794,169964.09534980005,77783.19898643481,TASK2
2026-04-28T11:13:12.141+00:00,1300,96127,64149.05955184216,61525.85882256732,132002.51841575128,95032.42016225103,107532.65560062595,94141.79255268486,169962.82130036608,77785.07653296906,TASK2
2026-04-28T11:13:12.141+00:00,1300,96128,64145.103293073575,61526.93170630118,131999.0985988496,95033.22482505141,107529.50400465775,94142.86543641871,169961.8154718656,77785.612974836,TASK2
2026-04-28T11:13:12.141+00:00,1300,96129,64148.85838614206,61529.88213656928,132000.17148258348,95034.8341506522,107529.50400465775,94144.74298295296,169960.8096433651,77783.26604166819,TASK2
2026-04-28T11:13:12.141+00:00,1300,96130,64154.22280481134,61534.44189243816,132003.39013378503,95038.05280185376,107532.99087679277,94148.229855088,169963.22363176628,77788.362239404,TASK2
2026-04-28T11:13:12.141+00:00,1300,96131,64153.216976310854,61535.246555238555,132004.73123845237,95038.5892437207,107536.4777489278,94148.229855088,169966.7105039013,77790.77622780517,TASK2
2026-04-28T11:13:12.141+00:00,1300,96132,64150.065380342654,61535.246555238555,132003.4571890184,95037.5834152202,107537.01419079473,94147.2240265875,169967.5151667017,77792.1173324725,TASK2
2026-04-28T11:13:12.141+00:00,1300,96133,64149.59599370909,61537.66054363972,132003.72540995188,95040.26562455484,107535.20369949385,94149.90623592213,169967.78338763517,77793.99487900673,TASK2
2026-04-28T11:13:12.141+00:00,1300,96134,64151.7417611768,61540.342752974364,132004.2618518188,95040.80206642176,107535.20369949385,94149.90623592213,169967.58222193507,77797.48175114176,TASK2
2026-04-28T11:13:12.141+00:00,1300,96135,64153.351086777584,61541.952078575145,132005.33473555263,95040.06445885474,107536.00836229423,94147.8275236878,169966.84461436805,77798.28641394216,TASK2
2026-04-28T11:13:12.141+00:00,1300,96136,64152.61347921056,61538.800482606945,132006.94406115342,95040.06445885474,107537.08124602809,94149.16862835511,169968.72216090228,77797.0123645082,TASK2
2026-04-28T11:13:12.141+00:00,1300,96137,64151.87587164353,61541.750912875046,132006.74289545332,95041.67378445552,107535.80719659413,94152.65550049013,169967.98455333526,77795.73831507425,TASK2
2026-04-28T11:13:12.141+00:00,1300,96138,64152.68053444392,61546.847110610855,132004.93240415247,95042.47844725591,107532.92382155941,94153.72838422398,169964.5647364336,77794.4642656403,TASK2
2026-04-28T11:13:12.141+00:00,1300,96139,64154.02163911124,61548.99287807856,132006.8099506867,95044.0877728567,107534.53314716018,94153.72838422398,169963.29068699965,77792.92199527287,TASK2
2026-04-28T11:13:12.141+00:00,1300,96140,64154.826301911635,61548.523491445005,132007.6146134871,95043.61838622313,107535.60603089404,94152.18611385657,169961.48019569876,77792.45260863932,TASK2
2026-04-28T11:13:12.141+00:00,1300,96141,64154.826301911635,61549.05993331193,132008.4192762875,95042.88077865611,107536.94713556136,94152.18611385657,169959.66970439788,77789.83745453805,TASK2
2026-04-28T11:13:12.141+00:00,1300,96142,64152.74758967729,61548.322325744906,132008.68749722093,95042.88077865611,107537.21535649482,94152.45433479003,169960.2061462648,77790.64211733844,TASK2
2026-04-28T11:13:12.141+00:00,1300,96143,64153.88752864451,61551.876253113296,132010.69915422192,95044.15482809006,107540.56811816312,94151.78378245638,169961.7484166322,77792.65377433941,TASK2
2026-04-28T11:13:12.141+00:00,1300,96144,64156.83795891261,61552.14447404676,132010.69915422192,95044.15482809006,107542.17744376391,94151.04617488936,169961.54725093214,77795.87242554098,TASK2
2026-04-28T11:13:12.141+00:00,1300,96145,64159.788389180714,61550.602203679344,132011.5038170223,95045.76415369085,107543.25032749776,94152.9237214236,169963.9612393333,77800.43218140987,TASK2
2026-04-28T11:13:12.141+00:00,1300,96146,64156.10035134559,61553.01619208052,132011.3026513222,95048.44636302548,107542.24449899727,94155.06948889131,169964.4976812002,77800.23101570977,TASK2
2026-04-28T11:13:12.141+00:00,1300,96147,64155.094522845095,61552.81502638042,132011.10148562212,95048.44636302548,107540.70222862986,94154.60010225775,169965.03412306716,77800.76745757669,TASK2
2026-04-28T11:13:12.141+00:00,1300,96148,64154.893357144996,61554.42435198121,132011.10148562212,95047.17231359152,107540.50106292976,94152.25316908995,169966.37522773448,77805.05899251212,TASK2
2026-04-28T11:13:12.141+00:00,1300,96149,64157.03912461271,61556.03367758199,132012.44259028943,95047.17231359152,107542.11038853053,94154.93537842458,169967.44811146831,77807.20475997982,TASK2
2026-04-28T11:13:12.141+00:00,1300,96150,64158.91667114695,61558.1794450497,132014.8565786906,95047.97697639192,107543.98793506478,94157.08114589228,169969.8620998695,77809.88696931445,TASK2
2026-04-28T11:13:12.141+00:00,1300,96151,64159.45311301388,61560.325212517404,132016.4659042914,95049.04986012577,107546.67014439942,94155.27065459141,169971.73964640376,77810.69163211485,TASK2
2026-04-28T11:13:12.516+00:00,1301,96152,64159.25194731378,61559.05116308345,132017.00234615832,95048.84869442567,107548.2794700002,94155.06948889131,169972.27608827068,77812.5691786491,TASK2
2026-04-28T11:13:12.516+00:00,1301,96153,64159.05078161369,61560.66048868423,132015.99651765783,95050.72624095992,107547.81008336664,94155.60593075823,169971.53848070366,77813.37384144949,TASK2
2026-04-28T11:13:12.516+00:00,1301,96154,64163.61053748257,61562.80625615195,132018.410506059,95052.06734562723,107548.8829671005,94157.75169822594,169972.6113644375,77816.05605078411,TASK2
2026-04-28T11:13:12.516+00:00,1301,96155,64163.61053748257,61566.02490735351,132018.67872699245,95052.87200842763,107548.8829671005,94159.36102382673,169973.9524691048,77821.4204694534,TASK2
2026-04-28T11:13:12.516+00:00,1301,96156,64161.531825248225,61563.6779741857,132018.47756129235,95051.59795899368,107548.41358046693,94156.47764879199,169972.4101987374,77816.92776881788,TASK2
2026-04-28T11:13:12.516+00:00,1301,96157,64159.989554880805,61561.599261951356,132018.47756129235,95050.59213049318,107547.94419383338,94154.93537842458,169972.4101987374,77815.92194031739,TASK2
2026-04-28T11:13:12.516+00:00,1301,96158,64159.989554880805,61562.13570381828,132018.74578222583,95050.86035142666,107548.4806357003,94154.73421272448,169972.94664060432,77817.53126591817,TASK2
2026-04-28T11:13:12.516+00:00,1301,96159,64162.67176421545,61563.745029419064,132018.54461652573,95051.93323516051,107548.74885663377,94154.73421272448,169973.2148615378,77819.94525431935,TASK2
2026-04-28T11:13:12.516+00:00,1301,96160,64165.08575261662,61566.96368062063,132018.34345082563,95053.54256076129,107548.54769093367,94156.0753173918,169971.4043702369,77820.48169618627,TASK2
2026-04-28T11:13:12.516+00:00,1301,96161,64161.397714781495,61570.45055275566,132016.80118045822,95055.688328229,107547.00542056625,94157.14820112566,169970.93498360337,77822.62746365397,TASK2
2026-04-28T11:13:12.516+00:00,1301,96162,64160.12366534754,61570.71877368912,132017.0694013917,95055.95654916247,107547.00542056625,94158.75752672643,169971.2032045368,77824.23678925476,TASK2
2026-04-28T11:13:12.516+00:00,1301,96163,64163.342316549104,61571.791657422975,132019.48338979285,95056.49299102939,107548.61474616703,94159.83041046029,169971.2032045368,77823.7674026212,TASK2
2026-04-28T11:13:12.516+00:00,1301,96164,64166.82918868413,61570.78582892249,132021.89737819403,95055.4871625289,107550.76051363474,94158.55636102633,169970.73381790327,77823.7674026212,TASK2
2026-04-28T11:13:12.516+00:00,1301,96165,64166.628022984034,61572.12693358981,132021.89737819403,95056.29182532929,107551.0287345682,94158.08697439278,169972.34314350403,77824.84028635506,TASK2
2026-04-28T11:13:12.516+00:00,1301,96166,64166.158636350476,61576.95491039215,132022.1655991275,95058.97403466393,107551.8333973686,94160.23274186048,169973.4160272379,77824.63912065496,TASK2
2026-04-28T11:13:12.516+00:00,1301,96167,64166.158636350476,61580.71000346065,132022.70204099442,95059.77869746432,107553.44272296938,94161.03740466088,169972.94664060432,77823.90151308793,TASK2
2026-04-28T11:13:12.516+00:00,1301,96168,64166.158636350476,61578.6312912263,132022.9702619279,95058.50464803037,107552.16867353543,94160.03157616039,169970.86792837,77823.70034738784,TASK2
2026-04-28T11:13:12.516+00:00,1301,96169,64166.426857283936,61578.89951215976,132022.7690962278,95058.50464803037,107551.4310659684,94159.83041046029,169969.0574370691,77821.08519328656,TASK2
2026-04-28T11:13:12.516+00:00,1301,96170,64169.24317708531,61580.57589299391,132025.98774742935,95062.25974109885,107553.50977820274,94162.37850932819,169970.53265220317,77823.02979505417,TASK2
2026-04-28T11:13:12.516+00:00,1301,96171,64169.779618952234,61579.838285426886,132026.25596836282,95060.71747073144,107553.04039156919,94162.37850932819,169969.52682370268,77824.3708997215,TASK2
2026-04-28T11:13:12.516+00:00,1301,96172,64169.04201138521,61583.86159942884,132026.05480266272,95060.51630503134,107552.30278400215,94161.37268082771,169968.2527742687,77823.36507122101,TASK2
2026-04-28T11:13:12.516+00:00,1301,96173,64170.91955791946,61585.20270409616,132027.39590733004,95062.93029343252,107554.44855146986,94162.1773436281,169971.47142547028,77828.72948989028,TASK2
2026-04-28T11:13:12.516+00:00,1301,96174,64172.7971044537,61582.58754999489,132027.93234919696,95061.65624399857,107555.52143520371,94160.09863139376,169974.1536348049,77833.28924575917,TASK2
2026-04-28T11:13:12.516+00:00,1301,96175,64173.60176725409,61582.58754999489,132028.73701199735,95060.38219456462,107556.05787707065,94160.36685232722,169973.68424817137,77832.55163819213,TASK2
2026-04-28T11:13:12.516+00:00,1301,96176,64173.40060155399,61586.342643063384,132028.73701199735,95060.91863643154,107557.39898173796,94160.36685232722,169973.9524691048,77833.62452192599,TASK2
2026-04-28T11:13:12.516+00:00,1301,96177,64171.321889319646,61588.48841053109,132028.53584629725,95062.79618296579,107558.74008640529,94161.976177928,169973.9524691048,77832.61869342551,TASK2
2026-04-28T11:13:12.516+00:00,1301,96178,64167.0974096176,61586.67791923021,132026.18891312944,95063.06440389925,107559.00830733875,94162.24439886147,169973.48308247127,77831.61286492502,TASK2
2026-04-28T11:13:12.516+00:00,1301,96179,64166.628022984034,61587.21436109714,132025.7195264959,95062.32679633223,107559.27652827221,94161.7750122279,169974.0195243382,77833.22219052579,TASK2
2026-04-28T11:13:12.516+00:00,1301,96180,64171.45599978638,61589.896570431774,132028.13351489705,95062.59501726569,107559.54474920567,94160.50096279394,169974.5559662051,77836.17262079389,TASK2
2026-04-28T11:13:12.516+00:00,1301,96181,64173.065325387164,61591.77411696602,132028.40173583053,95064.7407847334,107559.54474920567,94160.03157616039,169972.74547490422,77833.55746669263,TASK2
2026-04-28T11:13:12.516+00:00,1301,96182,64172.864159687066,61595.52921003451,132028.93817769745,95066.61833126764,107558.53892070519,94161.37268082771,169973.28191677117,77833.55746669263,TASK2
2026-04-28T11:13:12.516+00:00,1301,96183,64172.39477305351,61600.35718683686,132028.4687910639,95069.8369824692,107558.80714163865,94165.39599482967,169974.62302143849,77834.36212949302,TASK2
2026-04-28T11:13:12.516+00:00,1301,96184,64175.61342425507,61600.62540777033,132028.4687910639,95069.36759583565,107560.41646723944,94166.20065763005,169975.42768423888,77836.50789696073,TASK2
2026-04-28T11:13:12.516+00:00,1301,96185,64177.49097078932,61601.96651243764,132030.88277946506,95069.36759583565,107561.22113003982,94166.73709949698,169977.3052307731,77839.19010629537,TASK2
2026-04-28T11:13:12.516+00:00,1301,96186,64177.49097078932,61602.50295430457,132032.22388413237,95070.4404795695,107561.22113003982,94169.41930883162,169978.64633544043,77838.18427779488,TASK2
2026-04-28T11:13:12.516+00:00,1301,96187,64178.56385452317,61601.76534673754,132032.02271843227,95070.97692143644,107560.4835224728,94171.83329723279,169979.7192191743,77840.06182432912,TASK2
2026-04-28T11:13:12.516+00:00,1301,96188,64178.094467889605,61603.64289327179,132032.02271843227,95071.51336330335,107559.20947303885,94170.55924779884,169977.3722860065,77835.83734462707,TASK2
2026-04-28T11:13:12.516+00:00,1301,96189,64176.55219752219,61604.715777005644,132031.55333179873,95070.77575573634,107557.9354236049,94167.40765183064,169976.90289937292,77839.32421676209,TASK2
2026-04-28T11:13:12.516+00:00,1301,96190,64176.82041845565,61602.10062290437,132031.82155273217,95069.50170630238,107560.34941200606,94167.6758727641,169978.5122249737,77842.81108889713,TASK2
2026-04-28T11:13:12.516+00:00,1301,96191,64176.82041845565,61603.70994850516,132032.62621553257,95070.30636910276,107562.76340040725,94168.74875649795,169977.77461740669,77840.46415572932,TASK2
2026-04-28T11:13:12.516+00:00,1301,96192,64179.23440685683,61605.855715972866,132033.43087833296,95072.45213657049,107563.29984227417,94170.6263030322,169978.3110592736,77837.31255976112,TASK2
2026-04-28T11:13:12.516+00:00,1301,96193,64178.22857835634,61604.849887472374,132034.23554113336,95070.37342433614,107565.17738880841,94166.93826519708,169979.38394300747,77838.38544349498,TASK2
2026-04-28T11:13:12.516+00:00,1301,96194,64177.49097078932,61604.648721772275,132034.03437543326,95067.4900493014,107565.98205160881,94161.90912269463,169979.65216394092,77841.87231563,TASK2
2026-04-28T11:13:12.516+00:00,1301,96195,64179.1002963901,61605.18516363921,132033.29676786624,95065.41133706705,107565.78088590871,94159.56218952683,169978.64633544043,77843.48164123078,TASK2
2026-04-28T11:13:12.516+00:00,1301,96196,64182.31894759166,61607.867372973844,132034.63787253355,95065.21017136695,107565.78088590871,94157.75169822594,169978.44516974033,77842.20759179683,TASK2
2026-04-28T11:13:12.516+00:00,1301,96197,64181.58134002463,61608.9402567077,132034.90609346703,95066.28305510081,107564.77505740822,94158.01991915941,169977.7075621733,77841.20176329634,TASK2
2026-04-28T11:13:12.516+00:00,1301,96198,64181.58134002463,61607.666207273745,132034.70492776693,95066.28305510081,107564.30567077466,94158.82458195981,169975.3606290055,77838.31838826161,TASK2
2026-04-28T11:13:12.516+00:00,1301,96199,64180.03906965722,61607.19682064019,132033.43087833296,95065.54544753379,107562.49517947377,94158.35519532624,169976.70173367282,77842.87814413049,TASK2
2026-04-28T11:13:12.516+00:00,1301,96200,64179.569683023656,61607.733262507114,132033.22971263286,95067.15477313458,107563.29984227417,94159.42807906009,169977.77461740669,77844.75569066474,TASK2
2026-04-28T11:13:12.516+00:00,1301,96201,64182.788334225224,61612.896515476285,132036.85069523464,95071.37925283662,107565.51266497525,94165.46305006303,169979.04866684062,77843.95102786434,TASK2
2026-04-28T11:13:12.516+00:00,1301,96202,64183.056555158684,61615.042282944,132036.38130860106,95072.45213657049,107563.4339527409,94167.0723756638,169980.6579924414,77847.43789999938,TASK2
2026-04-28T11:13:12.516+00:00,1301,96203,64184.93410169293,61618.26093414556,132038.52707606877,95075.67078777205,107566.11616207553,94169.75458499845,169981.73087617528,77849.58366746709,TASK2
2026-04-28T11:13:12.516+00:00,1301,96204,64184.19649412591,61619.065596945955,132038.79529700225,95075.46962207195,107567.72548767632,94169.75458499845,169981.52971047518,77850.65655120094,TASK2
2026-04-28T11:13:12.516+00:00,1301,96205,64186.61048252708,61614.03645444351,132039.06351793572,95071.78158423681,107566.9878801093,94167.94409369757,169978.37811450698,77847.7731761662,TASK2
2026-04-28T11:13:12.516+00:00,1301,96206,64187.41514532747,61615.37755911083,132038.86235223562,95071.78158423681,107565.71383067535,94165.86538146323,169976.83584413957,77844.08513833108,TASK2
2026-04-28T11:13:12.516+00:00,1301,96207,64182.65422375849,61617.523326578535,132036.24719813434,95070.77575573634,107564.17156030792,94165.86538146323,169977.64050693993,77844.35335926454,TASK2
2026-04-28T11:13:12.516+00:00,1301,96208,64180.84373245761,61618.59621031239,132035.50959056732,95071.58041853672,107565.78088590871,94164.85955296273,169979.5180534742,77846.49912673225,TASK2
2026-04-28T11:13:12.516+00:00,1301,96209,64178.76502022327,61623.15596618127,132035.77781150077,95072.92152320404,107566.04910684217,94164.65838726264,169979.04866684062,77847.03556859918,TASK2
2026-04-28T11:13:12.516+00:00,1301,96210,64177.49097078932,61626.6428383163,132035.30842486722,95073.1897441375,107565.31149927515,94165.73127099649,169980.1215505745,77847.5720104661,TASK2
2026-04-28T11:13:12.516+00:00,1301,96211,64186.87870346054,61623.4912423481,132037.72241326838,95071.91569470355,107567.1890458094,94165.73127099649,169981.99909710872,77851.3271035346,TASK2
2026-04-28T11:13:12.516+00:00,1301,96212,64189.82913372864,61623.4912423481,132039.59995980264,95072.9885784374,107568.26192954325,94167.8770384642,169982.2673180422,77850.85771690104,TASK2
2026-04-28T11:13:12.516+00:00,1301,96213,64187.21397962737,61626.17345168274,132038.59413130215,95074.32968310472,107569.06659234363,94169.48636406499,169980.7250476748,77847.43789999938,TASK2
2026-04-28T11:13:12.516+00:00,1301,96214,64185.67170925996,61629.66032381777,132035.97897720087,95074.5979040382,107570.40769701096,94171.6321315327,169979.98744010777,77848.51078373323,TASK2
2026-04-28T11:13:12.516+00:00,1301,96215,64189.158581394986,61629.45915811767,132037.85652373513,95075.67078777205,107572.28524354521,94175.38722460119,169978.44516974033,77846.9685133658,TASK2
2026-04-28T11:13:12.516+00:00,1301,96216,64189.96324419537,61626.039341216005,132039.4658493359,95074.93318020501,107573.89456914598,94176.46010833504,169980.3227162746,77848.5778389666,TASK2
2026-04-28T11:13:12.516+00:00,1301,96217,64186.27520636025,61624.76529178205,132037.11891616808,95073.3909098376,107572.08407784511,94173.04029143338,169980.1215505745,77850.18716456738,TASK2
2026-04-28T11:13:12.516+00:00,1301,96218,64186.074040660154,61628.25216391708,132036.38130860106,95075.00023543839,107570.81002841116,94173.5767333003,169979.115722074,77851.26004830124,TASK2
2026-04-28T11:13:12.516+00:00,1301,96219,64189.292691861716,61632.00725698558,132036.64952953454,95076.60956103916,107570.34064177758,94176.79538450186,169981.2614895417,77855.28336230319,TASK2
2026-04-28T11:13:12.516+00:00,1301,96220,64192.779563996744,61632.5436988525,132038.79529700225,95077.1460029061,107572.4864092453,94176.79538450186,169983.6754779429,77856.89268790396,TASK2
2026-04-28T11:13:12.516+00:00,1301,96221,64187.7504214943,61633.34836165289,132039.59995980264,95077.1460029061,107575.97328138033,94175.78955600139,169989.03989661214,77863.3299903071,TASK2
2026-04-28T11:13:12.516+00:00,1301,96222,64190.7008517624,61637.103454721386,132040.67284353648,95079.42588084053,107577.91788314794,94177.1306606687,169991.45388501332,77863.79937694066,TASK2
2026-04-28T11:13:12.516+00:00,1301,96223,64193.6512820305,61643.27253619105,132041.20928540343,95081.57164830825,107578.45432501487,94176.66127403514,169990.98449837975,77862.79354844017,TASK2
2026-04-28T11:13:12.516+00:00,1301,96224,64192.37723259655,61642.53492862402,132042.8186110042,95082.10809017517,107580.06365061564,94178.00237870245,169992.05738211362,77862.59238274007,TASK2
2026-04-28T11:13:12.516+00:00,1301,96225,64188.68919476142,61640.724437323144,132041.54456157025,95080.83404074122,107578.78960118169,94180.41636710362,169993.1302658475,77862.86060367353,TASK2
2026-04-28T11:13:12.516+00:00,1301,96226,64194.0536134307,61639.71860882265,132043.15388717104,95078.75532850687,107580.66714771594,94180.6845880371,169988.63756521195,77858.63612397148,TASK2
2026-04-28T11:13:12.876+00:00,1302,96227,64197.0040436988,61641.05971348997,132044.49499183835,95078.55416280677,107581.20358958287,94181.22102990402,169984.94952737683,77855.48452800329,TASK2
2026-04-28T11:13:12.876+00:00,1302,96228,64194.92533146445,61641.86437629037,132044.29382613825,95077.5483343063,107582.54469425019,94179.14231766967,169986.0224111107,77858.97140013831,TASK2
2026-04-28T11:13:12.876+00:00,1302,96229,64193.38306109704,61641.66321059027,132044.83026800517,95076.5425058058,107582.81291518365,94176.5271635684,169988.1681785784,77865.14048160797,TASK2
2026-04-28T11:13:12.876+00:00,1302,96230,64196.333491365134,61644.61364085837,132046.17137267248,95079.22471514043,107584.15401985098,94180.01403570344,169991.38682977995,77868.09091187608,TASK2
2026-04-28T11:13:12.876+00:00,1302,96231,64195.864104731576,61648.1005129934,132045.70198603894,95081.37048260815,107584.42224078444,94181.89158223767,169992.19149258034,77867.35330430906,TASK2
2026-04-28T11:13:12.876+00:00,1302,96232,64195.39471809802,61649.17339672725,132046.50664883933,95081.90692447507,107586.03156638521,94182.4280241046,169991.45388501332,77867.35330430906,TASK2
2026-04-28T11:13:12.876+00:00,1302,96233,64196.46760183187,61649.44161766071,132047.31131163973,95082.71158727547,107587.10445011906,94184.03734970538,169993.8678734145,77873.25416484525,TASK2
2026-04-28T11:13:12.876+00:00,1302,96234,64197.540485565725,61648.70401009369,132048.9206372405,95082.71158727547,107587.37267105254,94185.37845437271,169997.622966483,77878.61858351453,TASK2
2026-04-28T11:13:12.876+00:00,1302,96235,64202.904904234994,61650.31333569447,132052.94395124246,95083.78447100932,107590.32310132064,94184.64084680568,169998.96407115032,77876.27165034672,TASK2
2026-04-28T11:13:12.876+00:00,1302,96236,64202.904904234994,61654.06842876296,132055.08971871017,95085.66201754357,107593.00531065527,94185.981951473,170000.5733967511,77878.41741781443,TASK2
2026-04-28T11:13:12.876+00:00,1302,96237,64204.246008902315,61657.55530089799,132055.3579396436,95085.93023847703,107594.3464153226,94185.7807857729,170000.84161768455,77881.90428994945,TASK2
2026-04-28T11:13:12.876+00:00,1302,96238,64203.50840133529,61661.04217303302,132054.88855301007,95087.80778501127,107595.41929905645,94188.73121604101,170000.372231051,77880.6302405155,TASK2
2026-04-28T11:13:12.876+00:00,1302,96239,64206.45883160339,61663.99260330112,132056.22965767738,95088.61244781167,107597.2968455907,94190.87698350872,170002.5179985187,77887.06754291864,TASK2
2026-04-28T11:13:12.876+00:00,1302,96240,64207.263494403785,61662.71855386717,132058.3754251451,95086.80195651078,107600.2472758588,94189.06649220783,170004.66376598642,77890.01797318672,TASK2
2026-04-28T11:13:12.876+00:00,1302,96241,64204.91656123597,61658.22585323165,132057.10137571115,95085.79612801029,107598.97322642483,94187.52422184042,170004.66376598642,77890.2861941202,TASK2
2026-04-28T11:13:12.876+00:00,1302,96242,64205.4530031029,61660.103399765896,132056.3637681441,95085.79612801029,107598.97322642483,94188.06066370734,170003.121495619,77886.06171441815,TASK2
2026-04-28T11:13:12.876+00:00,1302,96243,64201.76496526778,61665.73603936863,132054.28505590977,95087.67367454454,107597.69917699088,94189.93821024158,170003.9261584194,77889.01214468625,TASK2
2026-04-28T11:13:12.876+00:00,1302,96244,64201.29557863421,61669.22291150366,132054.8214977767,95090.89232574611,107597.22979035732,94193.96152424354,170008.75413522174,77896.52233082322,TASK2
2026-04-28T11:13:12.876+00:00,1302,96245,64204.246008902315,61668.485303936635,132056.162602444,95090.69116004602,107597.4980112908,94194.76618704393,170009.29057708866,77897.59521455708,TASK2
2026-04-28T11:13:12.876+00:00,1302,96246,64204.78245076924,61669.55818767049,132056.9672652444,95091.4958228464,107595.95574092337,94195.0344079774,170006.40720205393,77893.10251392156,TASK2
2026-04-28T11:13:12.876+00:00,1302,96247,64206.92821823695,61671.5027894381,132058.77775654529,95094.8485845147,107599.71083399186,94197.7836725454,170008.95530092184,77896.45527558986,TASK2
2026-04-28T11:13:12.876+00:00,1302,96248,64208.00110197081,61675.257882506594,132058.77775654529,95095.92146824855,107599.71083399186,94199.39299814618,170009.2235218553,77897.25993839026,TASK2
2026-04-28T11:13:12.876+00:00,1302,96249,64209.073985704665,61679.28119650855,132059.04597747876,95096.9943519824,107599.2414473583,94201.27054468043,170008.21769335482,77897.79638025718,TASK2
2026-04-28T11:13:12.876+00:00,1302,96250,64212.292636906226,61676.93426334074,132062.2646286803,95094.6474188146,107602.72831949333,94196.50962311144,170009.0223561552,77900.21036865836,TASK2
2026-04-28T11:13:12.876+00:00,1302,96251,64214.97484624086,61677.2024842742,132062.0634629802,95093.37336938064,107602.99654042679,94194.43091087711,170007.48008578777,77900.47858959182,TASK2
2026-04-28T11:13:12.876+00:00,1302,96252,64211.5550293392,61679.34825174191,132061.3258554132,95094.4462531145,107601.72249099283,94196.57667834482,170008.01652765472,77904.23368266031,TASK2
2026-04-28T11:13:12.876+00:00,1302,96253,64212.89613400652,61678.07420230796,132062.93518101398,95094.98269498143,107603.86825846056,94195.83907077779,170008.8211904551,77906.11122919455,TASK2
2026-04-28T11:13:12.876+00:00,1302,96254,64210.28097990525,61682.63395817684,132063.20340194745,95095.25091591489,107605.20936312787,94195.36968414423,170008.08358288807,77906.11122919455,TASK2
2026-04-28T11:13:12.876+00:00,1302,96255,64211.08564270564,61687.19371404572,132063.00223624735,95096.5920205822,107605.20936312787,94196.44256787808,170011.03401315617,77910.40276412998,TASK2
2026-04-28T11:13:12.876+00:00,1302,96256,64215.913619507985,61685.115001811384,132065.14800371506,95098.20134618299,107608.42801432943,94198.32011441233,170015.05732715814,77913.889636265,TASK2
2026-04-28T11:13:12.876+00:00,1302,96257,64219.93693350994,61684.64561517782,132069.43953865048,95099.00600898339,107612.98777019832,94200.19766094658,170019.08064116008,77917.37650840003,TASK2
2026-04-28T11:13:12.876+00:00,1302,96258,64218.39466314253,61687.86426637939,132071.04886425126,95100.3471136507,107613.7924329987,94201.53876561389,170019.88530396047,77918.9858340008,TASK2
2026-04-28T11:13:12.876+00:00,1302,96259,64217.388834642035,61688.13248731285,132068.43371014998,95100.1459479506,107610.37261609704,94199.99649524648,170015.39260332496,77915.8342380326,TASK2
2026-04-28T11:13:12.876+00:00,1302,96260,64219.26638117628,61689.2053710467,132068.70193108343,95102.29171541831,107611.17727889743,94203.4833673815,170014.9232166914,77915.63307233251,TASK2
2026-04-28T11:13:12.876+00:00,1302,96261,64220.07104397667,61690.81469664749,132069.7748148173,95103.9010410191,107612.78660449822,94206.16557671614,170016.26432135873,77916.97417699984,TASK2
2026-04-28T11:13:12.876+00:00,1302,96262,64220.607485843604,61691.88758038134,132070.84769855117,95103.43165438554,107614.66415103247,94206.16557671614,170017.33720509257,77917.77883980022,TASK2
2026-04-28T11:13:12.876+00:00,1302,96263,64220.406320143506,61695.37445251637,132070.3783119176,95102.6940468185,107614.46298533237,94205.96441101604,170016.06315565863,77920.46104913486,TASK2
2026-04-28T11:13:12.876+00:00,1302,96264,64224.96607601239,61698.8613246514,132072.25585845183,95104.57159335275,107614.46298533237,94206.2326319495,170015.05732715814,77919.9916625013,TASK2
2026-04-28T11:13:12.876+00:00,1302,96265,64225.502517879315,61701.00709211911,132073.06052125222,95107.52202362086,107615.80408999968,94211.32882968531,170018.54419929316,77926.6971858379,TASK2
2026-04-28T11:13:12.876+00:00,1302,96266,64225.301352179216,61700.53770548554,132074.1334049861,95109.13134922164,107617.94985746739,94212.66993435264,170021.49462956126,77927.77006957175,TASK2
2026-04-28T11:13:12.876+00:00,1302,96267,64226.64245684653,61700.80592641901,132074.93806778648,95108.12552072115,107619.2909621347,94208.44545465059,170021.0252429277,77925.15491547047,TASK2
2026-04-28T11:13:12.876+00:00,1302,96268,64224.56374461219,61702.41525201979,132073.66401835252,95108.93018352154,107619.82740400164,94208.9818965175,170020.0194144272,77927.56890387165,TASK2
2026-04-28T11:13:12.876+00:00,1302,96269,64225.10018647912,61703.75635668711,132073.66401835252,95110.27128818886,107619.08979643461,94211.93232678561,170020.28763536067,77930.25111320628,TASK2
2026-04-28T11:13:12.876+00:00,1302,96270,64226.44129114644,61706.70678695521,132074.73690208638,95111.61239285617,107618.35218886759,94213.00521051946,170019.8182487271,77932.12865974053,TASK2
2026-04-28T11:13:12.876+00:00,1302,96271,64229.92816328146,61705.43273752126,132077.95555328793,95112.68527659003,107620.76617726876,94211.73116108551,170018.27597835968,77931.65927310697,TASK2
2026-04-28T11:13:12.876+00:00,1302,96272,64230.19638421493,61705.23157182116,132079.0284370218,95113.22171845696,107622.37550286955,94211.99938201897,170019.61708302703,77933.80504057468,TASK2
2026-04-28T11:13:12.876+00:00,1302,96273,64228.38589291405,61705.49979275462,132077.75438758783,95114.02638125735,107621.90611623599,94214.14514948669,170019.88530396047,77934.07326150814,TASK2
2026-04-28T11:13:12.876+00:00,1302,96274,64233.14681448303,61709.657217223306,132081.44242542298,95116.30625919178,107626.06354070466,94218.6378501222,170023.84156272907,77937.89540981,TASK2
2026-04-28T11:13:12.876+00:00,1302,96275,64234.21969821688,61714.485194025656,132083.05175102374,95117.37914292565,107629.28219190624,94217.09557975478,170025.45088832985,77940.8458400781,TASK2
2026-04-28T11:13:12.876+00:00,1302,96276,64232.67742784946,61716.09451962644,132083.05175102374,95116.64153535862,107630.3550756401,94216.0897512543,170025.24972262976,77939.30356971068,TASK2
2026-04-28T11:13:12.876+00:00,1302,96277,64232.94564878293,61712.67470272478,132082.31414345672,95116.17214872506,107628.81280527267,94218.77196058893,170026.05438543015,77940.644674378,TASK2
2026-04-28T11:13:12.876+00:00,1302,96278,64231.93982028244,61712.20531609122,132081.84475682315,95116.70859059198,107627.53875583872,94221.9906117905,170025.85321973005,77943.32688371264,TASK2
2026-04-28T11:13:12.876+00:00,1302,96279,64231.73865458235,61716.7650719601,132082.64941962354,95118.04969525931,107628.87986050604,94222.25883272396,170024.57917029609,77945.47265118035,TASK2
2026-04-28T11:13:12.876+00:00,1302,96280,64235.22552671737,61718.106176627414,132083.9905242909,95119.92724179356,107630.22096517336,94222.25883272396,170025.38383309648,77947.3501977146,TASK2
2026-04-28T11:13:12.876+00:00,1302,96281,64238.44417791894,61721.59304876244,132086.940954559,95121.26834646087,107632.36673264107,94222.79527459088,170025.65205402995,77945.00326454679,TASK2
2026-04-28T11:13:12.876+00:00,1302,96282,64235.5608028842,61725.34814183094,132086.940954559,95121.80478832779,107632.16556694097,94223.33171645782,170024.64622552946,77943.46099417938,TASK2
2026-04-28T11:13:12.876+00:00,1302,96283,64240.120558753086,61724.074092396986,132088.01383829283,95122.60945112818,107632.16556694097,94226.55036765938,170025.7191092633,77943.9974360463,TASK2
2026-04-28T11:13:12.876+00:00,1302,96284,64238.31006745221,61724.87875519737,132086.7397888589,95122.40828542809,107631.15973844047,94228.15969326017,170023.10395516205,77942.45516567888,TASK2
2026-04-28T11:13:12.876+00:00,1302,96285,64237.57245988518,61725.68341799777,132086.27040222532,95122.40828542809,107630.95857274038,94228.15969326017,170022.36634759503,77946.21025874738,TASK2
2026-04-28T11:13:12.876+00:00,1302,96286,64239.98644828635,61725.95163893123,132088.14794875955,95122.40828542809,107631.22679367385,94228.42791419363,170023.1710103954,77946.21025874738,TASK2
2026-04-28T11:13:12.876+00:00,1302,96287,64240.254669219816,61727.829185465474,132088.14794875955,95122.67650636156,107632.03145647423,94227.42208569314,170024.51211506274,77947.01492154776,TASK2
2026-04-28T11:13:12.876+00:00,1302,96288,64239.51706165279,61727.359798831916,132087.14212025906,95123.48116916194,107633.90900300848,94228.22674849353,170025.58499879658,77946.5455349142,TASK2
2026-04-28T11:13:12.876+00:00,1302,96289,64238.24301221884,61729.505566299624,132085.59984989165,95122.74356159492,107632.903174508,94228.22674849353,170024.57917029609,77948.6913023819,TASK2
2026-04-28T11:13:12.876+00:00,1302,96290,64240.388779686546,61731.114891900404,132086.6727336255,95124.62110812917,107632.43378787443,94229.56785316084,170024.57917029609,77951.10529078309,TASK2
2026-04-28T11:13:12.876+00:00,1302,96291,64243.07098902118,61732.99243843465,132090.15960576053,95126.76687559688,107635.11599720907,94231.17717876163,170024.10978366254,77946.3443692141,TASK2
2026-04-28T11:13:12.876+00:00,1302,96292,64243.607430888114,61736.47931056968,132090.96426856093,95128.64442213112,107635.38421814253,94232.78650436242,170023.10395516205,77944.53387791323,TASK2
2026-04-28T11:13:12.876+00:00,1302,96293,64245.216756488895,61737.552194303535,132091.50071042785,95128.17503549755,107635.652439076,94233.32294622934,170023.64039702897,77948.28897098171,TASK2
2026-04-28T11:13:12.876+00:00,1302,96294,64245.75319835582,61736.009923936115,132092.57359416172,95128.97969829795,107636.72532280986,94234.12760902973,170027.127269164,77951.23940124981,TASK2
2026-04-28T11:13:12.876+00:00,1302,96295,64247.094303023136,61737.88747047036,132093.64647789556,95130.58902389873,107638.60286934409,94235.7369346305,170029.54125756517,77953.38516871752,TASK2
2026-04-28T11:13:12.876+00:00,1302,96296,64251.38583795856,61743.25188913964,132094.1829197625,95131.93012856605,107638.87109027756,94237.61448116475,170026.38966159697,77952.6475611505,TASK2
2026-04-28T11:13:12.876+00:00,1302,96297,64251.18467225846,61744.32477287349,132093.9817540624,95132.73479136644,107638.87109027756,94239.22380676554,170024.31094936264,77949.76418611576,TASK2
2026-04-28T11:13:12.876+00:00,1302,96298,64249.91062282451,61743.05072343954,132094.7864168628,95132.53362566634,107639.40753214448,94239.22380676554,170023.03689992867,77946.61259014758,TASK2
2026-04-28T11:13:12.876+00:00,1302,96299,64245.95436405592,61746.2693746411,132091.90304182805,95132.53362566634,107636.79237804322,94238.75442013198,170021.76285049474,77947.68547388143,TASK2
2026-04-28T11:13:12.876+00:00,1302,96300,64246.49080592285,61745.53176707408,132090.6289923941,95132.8018465998,107633.90900300848,94239.82730386584,170021.76285049474,77948.22191574835,TASK2
2026-04-28T11:13:12.876+00:00,1302,96301,64247.027247789774,61745.06238044052,132090.89721332755,95131.52779716585,107634.71366580887,94239.62613816574,170020.75702199424,77946.9478663144,TASK2
2026-04-28T11:13:12.876+00:00,1302,96302,64244.94853555543,61745.06238044052,132091.70187612795,95131.32663146575,107636.32299140966,94241.23546376651,170023.9756731958,77950.16651751596,TASK2
2026-04-28T11:13:12.876+00:00,1302,96303,64246.55786115621,61745.33060137398,132092.2383179949,95132.93595706654,107636.59121234312,94242.57656843384,170025.04855692966,77954.18983151791,TASK2
2026-04-28T11:13:12.876+00:00,1302,96304,64248.97184955738,61749.353915375934,132094.11586452913,95135.88638733464,107638.73697981083,94244.45411496809,170026.38966159697,77956.6038199191,TASK2
2026-04-28T11:13:12.876+00:00,1302,96305,64252.39166645904,61755.724162545695,132098.07212329772,95141.38491647065,107643.29673567972,94249.3491470038,170030.4129755989,77960.96241008787,TASK2
2026-04-28T11:13:12.876+00:00,1302,96306,64251.922279825485,61758.13815094687,132098.07212329772,95142.4578002045,107644.1013984801,94250.95847260457,170029.40714709845,77959.95658158738,TASK2
2026-04-28T11:13:12.876+00:00,1302,96307,64255.67737289397,61758.942813747264,132098.60856516464,95141.98841357094,107644.36961941357,94250.75730690447,170028.40131859796,77961.56590718817,TASK2
2026-04-28T11:13:12.876+00:00,1302,96308,64256.48203569437,61758.4734271137,132099.41322796504,95142.52485543786,107644.36961941357,94252.0984115718,170029.74242326527,77965.0527793232,TASK2
2026-04-28T11:13:12.876+00:00,1302,96309,64257.55491942822,61761.69207831527,132100.75433263235,95143.59773917172,107645.44250314742,94254.24417903951,170030.8153069991,77964.31517175617,TASK2
2026-04-28T11:13:12.876+00:00,1302,96310,64258.359582228615,61766.78827605108,132102.36365823314,95145.2070647725,107647.32004968167,94255.58528370682,170031.88819073298,77963.57756418915,TASK2
2026-04-28T11:13:12.876+00:00,1302,96311,64258.627803162075,61770.275148186105,132103.70476290045,95148.962157841,107649.1975962159,94258.80393490838,170034.30217913416,77965.99155259032,TASK2
2026-04-28T11:13:12.876+00:00,1302,96312,64259.43246596247,61769.26931968561,132105.31408850124,95150.57148344177,107650.0022590163,94263.09546984381,170038.59371406958,77973.23351779384,TASK2
2026-04-28T11:13:12.876+00:00,1302,96313,64261.57823343018,61773.29263368757,132108.5327397028,95151.10792530871,107651.87980555055,94265.24123731152,170041.81236527112,77979.93904113043,TASK2
2026-04-28T11:13:12.876+00:00,1302,96314,64264.52866369828,61774.90195928835,132109.87384437013,95150.90675960861,107653.7573520848,94265.77767917844,170042.0805862046,77981.81658766468,TASK2
2026-04-28T11:13:12.876+00:00,1302,96315,64265.33332649867,61779.19349422377,132110.41028623705,95152.78430614286,107655.63489861904,94267.92344664615,170038.9289902364,77979.2014335634,TASK2
2026-04-28T11:13:12.876+00:00,1302,96316,64265.33332649867,61780.534598891085,132110.94672810397,95155.46651547748,107655.63489861904,94271.9467606481,170037.1184989355,77979.0002678633,TASK2
2026-04-28T11:13:12.876+00:00,1302,96317,64263.254614264326,61782.41214542533,132110.47734147043,95156.80762014481,107654.36084918509,94273.82430718235,170036.11267043502,77979.53670973024,TASK2
2026-04-28T11:13:12.876+00:00,1302,96318,64261.44412296345,61780.60165412445,132109.47151296993,95154.19246604353,107654.15968348499,94267.45406001259,170034.5704000676,77978.53088122974,TASK2
2026-04-28T11:13:12.876+00:00,1302,96319,64264.12633229808,61779.86404655743,132109.00212633636,95150.77264914187,107654.15968348499,94263.76602217747,170032.75990876675,77973.76995966077,TASK2
2026-04-28T11:13:12.876+00:00,1302,96320,64265.199216031935,61779.66288085733,132109.27034726983,95150.77264914187,107654.42790441845,94265.10712684478,170034.3692343675,77976.4521689954,TASK2
2026-04-28T11:13:12.876+00:00,1302,96321,64266.540320699256,61776.24306395567,132110.34323100367,95149.76682064138,107654.42790441845,94266.4482315121,170034.1680686674,77978.5979364631,TASK2
2026-04-28T11:13:12.876+00:00,1302,96322,64265.80271313223,61776.7795058226,132110.8796728706,95150.57148344177,107654.96434628539,94268.5939989798,170032.89401923347,77977.59210796263,TASK2
2026-04-28T11:13:12.876+00:00,1302,96323,64264.796884631745,61781.33926169148,132111.14789380407,95153.25369277642,107656.3054509527,94269.66688271367,170034.50334483426,77978.93321262994,TASK2
2026-04-28T11:13:12.876+00:00,1302,96324,64265.60154743213,61785.09435475997,132112.75721940486,95154.86301837719,107656.84189281963,94270.2033245806,170036.64911230197,77981.88364289804,TASK2
2026-04-28T11:13:12.876+00:00,1302,96325,64266.94265209945,61785.630796626894,132113.56188220525,95154.66185267709,107657.37833468655,94271.81265018138,170037.7219960358,77984.02941036575,TASK2
2026-04-28T11:13:12.876+00:00,1302,96326,64270.96596610141,61788.447116428266,132117.31697527374,95156.47234397798,107661.40164868851,94273.95841764909,170038.66076930292,77986.97984063385,TASK2
2026-04-28T11:13:13.283+00:00,1303,96327,64269.691916667456,61791.933988563294,132118.12163807414,95157.81344864529,107662.47453242236,94274.49485951601,170039.19721116987,77991.27137556927,TASK2
2026-04-28T11:13:13.283+00:00,1303,96328,64270.76480040131,61792.73865136369,132118.12163807414,95159.15455331262,107663.27919522276,94276.37240605026,170041.8794205045,77992.07603836966,TASK2
2026-04-28T11:13:13.283+00:00,1303,96329,64273.447009735944,61794.079756031,132119.99918460837,95160.76387891339,107664.62029989007,94279.32283631836,170042.41586237142,77989.99732613532,TASK2
2026-04-28T11:13:13.283+00:00,1303,96330,64274.5198934698,61796.22552349871,132119.99918460837,95160.29449227983,107664.62029989007,94279.8592781853,170040.0689292036,77986.04106736674,TASK2
2026-04-28T11:13:13.283+00:00,1303,96331,64276.397440004046,61796.49374443218,132120.80384740877,95159.82510564628,107664.41913418997,94279.38989155172,170039.3313216366,77982.08480859814,TASK2
2026-04-28T11:13:13.283+00:00,1303,96332,64274.58694870317,61793.07392753052,132120.80384740877,95159.35571901272,107663.4133056895,94281.8038799529,170042.2817519047,77990.39965753551,TASK2
2026-04-28T11:13:13.283+00:00,1303,96333,64271.703573668434,61793.8785903309,132121.3402892757,95160.1603818131,107665.02263129027,94283.94964742061,170044.4275193724,77994.9594134044,TASK2
2026-04-28T11:13:13.283+00:00,1303,96334,64273.84934113614,61799.51122993365,132121.8767311426,95160.96504461349,107665.82729409066,94283.94964742061,170041.81236527112,77993.95358490391,TASK2
2026-04-28T11:13:13.283+00:00,1303,96335,64277.60443420463,61800.047671800574,132124.55894047726,95161.76970741389,107667.43661969145,94283.94964742061,170042.885249005,77996.90401517201,TASK2
2026-04-28T11:13:13.283+00:00,1303,96336,64277.13504757107,61796.896075832374,132125.09538234418,95159.959216113,107667.97306155837,94283.94964742061,170043.15346993846,77997.7086779724,TASK2
2026-04-28T11:13:13.283+00:00,1303,96337,64274.25167253634,61798.50540143316,132124.0895538437,95160.49565797993,107667.97306155837,94286.90007768871,170044.49457460578,77998.24511983932,TASK2
2026-04-28T11:13:13.283+00:00,1303,96338,64273.245844035846,61801.45583170126,132124.35777477716,95159.7580504129,107668.24128249183,94286.69891198861,170044.0251879722,77997.23929133883,TASK2
2026-04-28T11:13:13.283+00:00,1303,96339,64279.14670457205,61802.26049450165,132126.77176317832,95161.36737601369,107669.58238715916,94284.88842068773,170044.0251879722,77997.23929133883,TASK2
2026-04-28T11:13:13.283+00:00,1303,96340,64283.170018574005,61804.674482902825,132129.9904143799,95163.24492254794,107671.72815462686,94285.42486255466,170044.56162983913,77997.23929133883,TASK2
2026-04-28T11:13:13.283+00:00,1303,96341,64284.24290230786,61808.16135503785,132132.1361818476,95164.85424814872,107672.53281742726,94285.96130442158,170045.634513573,77997.77573320577,TASK2
2026-04-28T11:13:13.283+00:00,1303,96342,64282.70063194044,61811.111785305955,132130.86213241366,95165.6589109491,107673.06925929418,94287.03418815543,170046.4391763734,78000.72616347387,TASK2
2026-04-28T11:13:13.283+00:00,1303,96343,64285.65106220854,61810.91061960586,132132.20323708098,95167.53645748335,107674.41036396149,94291.32572309086,170045.70156880637,78000.25677684031,TASK2
2026-04-28T11:13:13.283+00:00,1303,96344,64285.65106220854,61812.25172427318,132135.42188828252,95168.87756215068,107677.09257329613,94292.66682775818,170045.96978973981,78001.32966057416,TASK2
2026-04-28T11:13:13.283+00:00,1303,96345,64282.23124530688,61815.20215454127,132134.6842807155,95165.99418711594,107676.62318666257,94288.97878992306,170046.50623160673,78002.93898617494,TASK2
2026-04-28T11:13:13.283+00:00,1303,96346,64284.37701277459,61814.46454697425,132134.21489408196,95165.2565795489,107676.89140759603,94289.24701085652,170047.5791153406,78004.01186990879,TASK2
2026-04-28T11:13:13.283+00:00,1303,96347,64284.37701277459,61808.89896260488,132135.55599874927,95164.51897198189,107678.23251226335,94290.05167365691,170048.11555720752,78004.28009084227,TASK2
2026-04-28T11:13:13.283+00:00,1303,96348,64285.98633837537,61809.167183538346,132135.0866121157,95164.78719291535,107677.76312562979,94289.85050795681,170046.5732868401,78004.28009084227,TASK2
2026-04-28T11:13:13.283+00:00,1303,96349,64285.78517267528,61810.50828820566,132134.0807836152,95164.31780628179,107676.75729712931,94289.64934225671,170045.8356792731,78006.42585830997,TASK2
2026-04-28T11:13:13.283+00:00,1303,96350,64288.199161076445,61812.38583473991,132134.61722548213,95165.92713188258,107674.41036396149,94291.25866785749,170043.2205251718,78002.73782047484,TASK2
2026-04-28T11:13:13.283+00:00,1303,96351,64288.60149247664,61814.665712674345,132136.02538538282,95167.33529178325,107675.95263432892,94295.41609232618,170044.36046413903,78002.93898617494,TASK2
2026-04-28T11:13:13.283+00:00,1303,96352,64286.5227802423,61815.20215454127,132136.2936063163,95166.32946328276,107677.29373899623,94296.7571969935,170043.35463563856,77999.78739020674,TASK2
2026-04-28T11:13:13.283+00:00,1303,96353,64287.05922210923,61819.22546854323,132136.2936063163,95167.67056795009,107678.36662273009,94296.7571969935,170042.34880713807,77999.78739020674,TASK2
2026-04-28T11:13:13.283+00:00,1303,96354,64290.27787331079,61822.712340678256,132137.0982691167,95167.93878888355,107678.36662273009,94296.7571969935,170041.61119957102,77997.17223610547,TASK2
2026-04-28T11:13:13.283+00:00,1303,96355,64290.27787331079,61823.24878254518,132137.0982691167,95167.93878888355,107678.90306459702,94297.29363886043,170042.14764143797,77999.58622450664,TASK2
2026-04-28T11:13:13.283+00:00,1303,96356,64289.27204481031,61819.82896564352,132137.90293191708,95166.6647394496,107680.5123901978,94297.83008072735,170043.75696703873,78004.95064317592,TASK2
2026-04-28T11:13:13.283+00:00,1303,96357,64289.07087911021,61818.55491620957,132138.439373784,95166.19535281604,107681.04883206473,94298.36652259428,170046.70739730683,78010.04684091173,TASK2
2026-04-28T11:13:13.283+00:00,1303,96358,64289.875541910595,61820.16424181035,132137.4335452835,95167.26823654989,107680.57944543117,94298.63474352774,170047.51206010723,78012.72905024636,TASK2
2026-04-28T11:13:13.283+00:00,1303,96359,64292.28953031177,61820.968904610745,132138.77464995082,95167.80467841681,107681.38410823155,94301.04873192892,170047.04267347368,78012.72905024636,TASK2
2026-04-28T11:13:13.283+00:00,1303,96360,64292.55775124524,61821.77356741113,132139.31109181777,95168.34112028375,107681.92055009848,94302.38983659624,170047.5791153406,78014.07015491369,TASK2
2026-04-28T11:13:13.283+00:00,1303,96361,64293.09419311216,61826.33332328002,132139.31109181777,95170.75510868491,107681.92055009848,94302.92627846316,170044.69574030588,78011.99144267934,TASK2
2026-04-28T11:13:13.283+00:00,1303,96362,64294.971739646404,61830.62485821544,132141.188638352,95173.97375988649,107682.99343383234,94306.14492966473,170042.885249005,78008.03518391075,TASK2
2026-04-28T11:13:13.283+00:00,1303,96363,64295.50818151333,61827.741483180704,132140.9874726519,95173.97375988649,107682.2558262653,94306.94959246511,170043.4216908719,78010.44917231193,TASK2
2026-04-28T11:13:13.283+00:00,1303,96364,64296.84928618065,61827.741483180704,132140.51808601833,95172.69971045254,107682.79226813224,94305.67554303116,170042.14764143797,78010.71739324539,TASK2
2026-04-28T11:13:13.283+00:00,1303,96365,64298.45861178143,61828.00970411416,132140.51808601833,95171.69388195204,107680.98177683135,94304.93793546414,170040.0689292036,78008.9069019445,TASK2
2026-04-28T11:13:13.283+00:00,1303,96366,64296.111678613626,61827.00387561368,132140.0486993848,95171.69388195204,107680.78061113127,94305.74259826454,170039.59954257007,78009.17512287798,TASK2
2026-04-28T11:13:13.283+00:00,1303,96367,64298.257446081334,61828.61320121446,132141.92624591902,95171.9621028855,107684.26748326629,94306.27904013146,170042.54997283817,78010.51622754529,TASK2
2026-04-28T11:13:13.283+00:00,1303,96368,64300.40321354905,61830.49074774871,132143.26735058633,95171.22449531849,107685.87680886708,94306.54726106493,170043.35463563856,78012.661995013,TASK2
2026-04-28T11:13:13.283+00:00,1303,96369,64299.397385048556,61830.28958204861,132143.26735058633,95171.02332961839,107686.14502980054,94307.88836573224,170044.15929843893,78015.88064621456,TASK2
2026-04-28T11:13:13.283+00:00,1303,96370,64298.65977748153,61831.63068671593,132142.7979639528,95171.5597714853,107684.87098036658,94309.22947039956,170045.2321821728,78018.29463461574,TASK2
2026-04-28T11:13:13.283+00:00,1303,96371,64296.312844313725,61834.0446751171,132141.7921354523,95172.09621335224,107683.86515186609,94312.44812160112,170045.76862403972,78019.63573928305,TASK2
2026-04-28T11:13:13.283+00:00,1303,96372,64296.312844313725,61837.531547252125,132142.5967982527,95175.3148645538,107683.663986166,94315.39855186922,170050.86482177553,78021.5132858173,TASK2
2026-04-28T11:13:13.283+00:00,1303,96373,64301.677262983,61834.64817221739,132145.81544945424,95174.84547792024,107688.22374203488,94312.5151768345,170053.01058924323,78023.12261141809,TASK2
2026-04-28T11:13:13.283+00:00,1303,96374,64308.38278631959,61833.37412278344,132147.96121692195,95170.88921915165,107691.97883510336,94309.09535993283,170046.37212114,78017.55702704871,TASK2
2026-04-28T11:13:13.283+00:00,1303,96375,64305.76763221832,61834.178785583834,132145.88250468762,95168.00584411691,107688.82723913516,94305.67554303116,170042.6840833049,78013.0643264132,TASK2
2026-04-28T11:13:13.283+00:00,1303,96376,64302.61603625012,61832.10007334949,132144.3402343202,95167.26823654989,107685.67564316698,94304.13327266375,170043.75696703873,78012.59493977964,TASK2
2026-04-28T11:13:13.283+00:00,1303,96377,64301.073765882706,61834.245840817195,132141.45685928548,95167.53645748335,107681.18294253145,94306.27904013146,170043.75696703873,78012.39377407954,TASK2
2026-04-28T11:13:13.283+00:00,1303,96378,64303.82303045071,61838.80559668608,132142.52974301932,95169.07872785076,107681.11588729809,94309.76591226649,170041.4770891043,78008.9069019445,TASK2
2026-04-28T11:13:13.283+00:00,1303,96379,64305.16413511802,61838.06798911905,132142.52974301932,95168.34112028375,107681.65232916502,94307.68720003215,170039.39837686997,78010.78444847875,TASK2
2026-04-28T11:13:13.283+00:00,1303,96380,64305.70057698496,61838.06798911905,132143.60262675319,95168.87756215068,107682.99343383234,94307.68720003215,170040.73948153728,78012.39377407954,TASK2
2026-04-28T11:13:13.283+00:00,1303,96381,64304.15830661754,61837.33038155203,132142.86501918614,95166.79884991633,107683.52987569926,94303.19449939663,170040.53831583718,78011.38794557904,TASK2
2026-04-28T11:13:13.283+00:00,1303,96382,64302.61603625012,61839.47614901974,132141.05452788528,95164.72013768199,107682.52404719878,94298.97001969458,170040.80653677066,78012.4608293129,TASK2
2026-04-28T11:13:13.283+00:00,1303,96383,64306.90757118554,61841.89013742091,132140.85336218518,95161.56854171379,107683.32870999917,94297.69597026063,170036.04561520167,78008.77279147778,TASK2
2026-04-28T11:13:13.283+00:00,1303,96384,64308.51689678632,61841.42075078735,132140.85336218518,95159.7580504129,107683.59693093263,94297.49480456053,170033.9669029673,78008.77279147778,TASK2
2026-04-28T11:13:13.283+00:00,1303,96385,64302.41487055003,61840.41492228686,132140.65219648508,95160.83093414677,107683.86515186609,94299.64057202823,170036.64911230197,78011.72322174588,TASK2
2026-04-28T11:13:13.283+00:00,1303,96386,64306.70640548544,61839.9455356533,132143.3344058197,95160.62976844667,107685.2062565334,94301.51811856248,170034.83862100108,78009.37628857807,TASK2
2026-04-28T11:13:13.283+00:00,1303,96387,64309.925056687,61838.13504435242,132145.21195235394,95159.62393994618,107687.35202400113,94300.51229006199,170030.0776994321,78004.61536700909,TASK2
2026-04-28T11:13:13.283+00:00,1303,96388,64309.72389098691,61841.35369555398,132144.20612385348,95159.42277424608,107686.07797456718,94297.89713596072,170028.53542906468,78004.88358794255,TASK2
2026-04-28T11:13:13.283+00:00,1303,96389,64314.283646855794,61840.07964612003,132145.01078665387,95157.88050387867,107685.87680886708,94295.01376092598,170025.9202749634,78002.80487570821,TASK2
2026-04-28T11:13:13.283+00:00,1303,96390,64314.82008872272,61839.073817619545,132145.5472285208,95156.60645444471,107685.13920130004,94294.54437429243,170023.5733417956,78002.80487570821,TASK2
2026-04-28T11:13:13.283+00:00,1303,96391,64311.132050887594,61839.87848041993,132144.80962095378,95154.79596314383,107683.59693093263,94294.54437429243,170024.378004596,78005.21886410938,TASK2
2026-04-28T11:13:13.283+00:00,1303,96392,64310.66266425403,61843.36535255496,132142.9991296529,95154.79596314383,107683.39576523253,94293.27032485847,170020.95818769434,77999.11683787308,TASK2
2026-04-28T11:13:13.283+00:00,1303,96393,64313.8813154556,61843.36535255496,132143.5355715198,95155.06418407729,107684.73686989985,94293.06915915837,170018.87947545998,77994.62413723757,TASK2
2026-04-28T11:13:13.283+00:00,1303,96394,64307.779289219296,61838.872651919446,132140.92041741853,95154.05835557681,107682.92637859898,94293.06915915837,170021.29346386116,77999.45211403992,TASK2
2026-04-28T11:13:13.283+00:00,1303,96395,64306.50523978534,61839.140872852906,132139.6463679846,95153.58896894324,107680.3112244977,94291.25866785749,170018.67830975988,77996.83695993865,TASK2
2026-04-28T11:13:13.283+00:00,1303,96396,64310.26033285384,61842.359524054475,132141.25569358538,95152.58314044276,107680.57944543117,94291.52688879096,170016.59959752555,77992.34425930312,TASK2
2026-04-28T11:13:13.283+00:00,1303,96397,64310.26033285384,61842.8959659214,132140.51808601833,95153.11958230968,107681.92055009848,94293.13621439174,170012.91155969043,77985.16934933297,TASK2
2026-04-28T11:13:13.283+00:00,1303,96398,64309.25450435335,61840.549032753595,132139.2440365844,95152.11375380919,107680.91472159799,94291.86216495778,170011.63751025646,77985.43757026644,TASK2
2026-04-28T11:13:13.283+00:00,1303,96399,64311.400271821054,61838.47032051925,132141.65802498558,95153.45485847651,107683.32870999917,94294.00793242549,170014.31971959112,77990.26554706878,TASK2
2026-04-28T11:13:13.283+00:00,1303,96400,64310.39444332057,61843.03007638813,132141.45685928548,95154.52774221037,107686.27914026726,94297.76302549399,170014.31971959112,77989.79616043522,TASK2
2026-04-28T11:13:13.283+00:00,1303,96401,64312.80843172174,61843.56651825506,132143.3344058197,95153.79013464334,107688.69312866844,94298.56768829438,170014.58794052457,77991.67370696946,TASK2
2026-04-28T11:13:13.283+00:00,1303,96402,64313.61309452213,61846.24872758969,132145.48017328742,95153.32074800978,107690.83889613615,94296.22075512657,170014.85616145804,77991.67370696946,TASK2
2026-04-28T11:13:13.283+00:00,1303,96403,64314.417757322524,61844.438236288814,132146.82127795473,95153.85718987671,107691.91177987,94293.87382195877,170018.0748126596,77995.69702097142,TASK2
2026-04-28T11:13:13.283+00:00,1303,96404,64313.41192882203,61843.43240778833,132146.62011225463,95154.39363174363,107690.63773043605,94296.01958942648,170021.82990572808,77999.98855590684,TASK2
2026-04-28T11:13:13.283+00:00,1303,96405,64314.75303348935,61844.237070588715,132146.1507256211,95153.11958230968,107690.63773043605,94297.09247316033,170022.90278946195,78003.20720710841,TASK2
2026-04-28T11:13:13.283+00:00,1303,96406,64318.50812655784,61845.04173338911,132148.83293495572,95153.38780324314,107694.12460257107,94298.97001969458,170024.78033599618,78003.47542804187,TASK2
2026-04-28T11:13:13.283+00:00,1303,96407,64314.82008872272,61848.52860552414,132147.82710645522,95155.26534977739,107694.12460257107,94300.57934529535,170028.2672081312,78007.49874204383,TASK2
2026-04-28T11:13:13.283+00:00,1303,96408,64313.54603928877,61850.674372991845,132146.82127795473,95156.87467537817,107691.5094484698,94304.33443836385,170029.876533732,78009.64450951153,TASK2
2026-04-28T11:13:13.283+00:00,1303,96409,64314.95419918945,61852.68602999282,132147.55888552178,95159.22160854598,107695.13043107156,94310.03413319995,170033.69868203386,78014.94187294744,TASK2
2026-04-28T11:13:13.283+00:00,1303,96410,64316.56352479023,61852.216643359265,132148.0953273887,95160.29449227983,107695.39865200502,94312.7163425346,170035.30800763465,78017.35586134861,TASK2
2026-04-28T11:13:13.283+00:00,1303,96411,64323.26904812682,61854.63063176044,132151.31397859025,95161.90381788062,107697.8126404062,94315.39855186922,170036.11267043502,78017.35586134861,TASK2
2026-04-28T11:13:13.283+00:00,1303,96412,64319.312789358235,61857.312841095074,132151.11281289015,95163.24492254794,107701.03129160777,94315.19738616912,170037.45377510236,78019.23340788286,TASK2
2026-04-28T11:13:13.283+00:00,1303,96413,64319.312789358235,61859.45860856278,132150.6434262566,95165.12246908218,107701.83595440816,94317.34315363684,170038.79487976967,78020.30629161671,TASK2
2026-04-28T11:13:13.283+00:00,1303,96414,64321.19033589248,61864.018364431664,132151.98453092392,95167.00001561643,107702.37239627508,94320.02536297147,170040.40420537046,78023.52494281827,TASK2
2026-04-28T11:13:13.283+00:00,1303,96415,64321.72677775941,61866.7005737663,132152.7891937243,95168.34112028375,107704.24994280933,94321.36646763879,170042.8181937716,78028.35291962062,TASK2
2026-04-28T11:13:13.283+00:00,1303,96416,64326.018312694825,61865.69474526581,132156.00784492586,95167.60351271671,107707.46859401089,94321.90290950572,170043.35463563856,78022.5191143178,TASK2
2026-04-28T11:13:13.283+00:00,1303,96417,64327.359417362146,61862.81137023108,132157.08072865973,95166.59768421623,107709.61436147861,94322.43935137265,170042.885249005,78016.68530901495,TASK2
2026-04-28T11:13:13.283+00:00,1303,96418,64327.15825166205,61861.80554173059,132156.3431210927,95166.39651851614,107710.95546614593,94323.78045603997,170044.2263536723,78020.70862301691,TASK2
