timestamp_utc,packet_index,sample_index,AF3,AF4,F3,F4,FC5,FC6,O2,O1,label
2026-05-26T10:00:15.599+00:00,764,51727,212655.8825559476,207226.82264170915,544550.1186907433,544605.5733687369,205073.67909832945,545564.4632058695,545213.2949487322,545338.6211798931,TASK1
2026-05-26T10:00:15.599+00:00,764,51728,212647.90298317707,207226.62147600905,544537.3111411704,544592.765819164,205069.1863976939,545551.3874353633,545200.219178226,545326.0818512538,TASK1
2026-05-26T10:00:15.599+00:00,764,51729,212641.26451507385,207229.84012721063,544530.1362312003,544585.5909091939,205064.6936970584,545544.2125253931,545193.0442682558,545318.9069412836,TASK1
2026-05-26T10:00:15.599+00:00,764,51730,212636.7718144383,207234.13166214604,544530.4044521337,544585.8591301274,205062.88320575753,545544.4807463265,545193.5807101227,545319.1751622171,TASK1
2026-05-26T10:00:15.599+00:00,764,51731,212631.74267193588,207236.27742961375,544529.9350655002,544585.3897434938,205064.4925313583,545543.7431387595,545192.8431025557,545318.43755465,TASK1
2026-05-26T10:00:15.599+00:00,764,51732,212622.95843636495,207236.8138714807,544520.6143880623,544576.3372869894,205067.17474069295,545534.6906822551,545184.0588669847,545309.3850981457,TASK1
2026-05-26T10:00:15.599+00:00,764,51733,212611.49199145936,207238.154976148,544507.8068384894,544563.261516483,205065.0960284586,545521.8831326822,545170.9830964784,545296.5775485728,TASK1
2026-05-26T10:00:15.599+00:00,764,51734,212604.85352335614,207243.25117388382,544500.6319285192,544555.8183855794,205063.82197902465,545514.9764436455,545163.8081865082,545289.4026386025,TASK1
2026-05-26T10:00:15.599+00:00,764,51735,212601.4337064545,207252.37068562157,544501.1683703862,544556.6230483798,205063.08437145763,545515.5128855124,545164.3446283751,545290.2073014029,TASK1
2026-05-26T10:00:15.599+00:00,764,51736,212600.15965702053,207259.88087175856,544502.24125412,544557.6959321137,205064.96191799187,545517.1222111132,545165.9539539759,545291.8166270037,TASK1
2026-05-26T10:00:15.599+00:00,764,51737,212594.86229358462,207262.5630810932,544500.6989837526,544556.1536617463,205063.68786855793,545515.043498879,545164.143462675,545290.0061357028,TASK1
2026-05-26T10:00:15.599+00:00,764,51738,212585.2733952133,207263.63596482706,544489.768980714,544545.2236587076,205058.12228418855,545503.3088330398,545152.9452387029,545278.8079117307,TASK1
2026-05-26T10:00:15.599+00:00,764,51739,212579.171368977,207266.8546160286,544483.1305126108,544538.3169696709,205053.62958355303,545496.6703649367,545146.0385496663,545271.6330017606,TASK1
2026-05-26T10:00:15.599+00:00,764,51740,212575.48333114188,207271.95081376442,544482.6611259772,544538.1158039708,205051.81909225215,545496.4691992366,545145.8373839662,545271.6330017606,TASK1
2026-05-26T10:00:15.599+00:00,764,51741,212572.33173517368,207275.97412776639,544480.3141928094,544535.5006498696,205051.81909225215,545493.5858242018,545143.4904507983,545269.2860685928,TASK1
2026-05-26T10:00:15.599+00:00,764,51742,212567.83903453816,207274.70007833242,544472.3346200389,544526.9846352321,205050.5450428182,545485.0698095644,545134.9744361609,545260.7700539554,TASK1
2026-05-26T10:00:15.599+00:00,764,51743,212562.27345016878,207272.6213660981,544459.7952913995,544514.7135275261,205047.12522591653,545472.5304809249,545122.4351075215,545248.4989462494,TASK1
2026-05-26T10:00:15.599+00:00,764,51744,212558.04897046674,207275.3035754327,544452.8886023627,544508.3432803564,205048.19810965037,545466.1602337551,545116.0648603517,545242.1286990796,TASK1
2026-05-26T10:00:15.599+00:00,764,51745,212557.84780476664,207278.5222266343,544454.766148897,544510.2208268906,205052.75786551926,545468.0377802894,545117.405965019,545243.7380246804,TASK1
2026-05-26T10:00:15.599+00:00,764,51746,212558.65246756704,207281.4726569024,544454.5649831969,544510.0196611905,205057.04940045468,545467.8366145893,545117.2047993189,545243.2686380468,TASK1
2026-05-26T10:00:15.599+00:00,764,51747,212559.65829606753,207283.41725867,544448.731177894,544504.6552425212,205060.20099642288,545462.7404168535,545111.8403806497,545236.9654461105,TASK1
2026-05-26T10:00:15.599+00:00,764,51748,212557.31136289972,207285.29480520423,544437.5329539219,544493.1887976157,205057.04940045468,545451.273971948,545100.6421566776,545225.4990012049,TASK1
2026-05-26T10:00:15.599+00:00,764,51749,212553.35510413113,207290.927444807,544433.8449160868,544489.5007597805,205055.50713008727,545447.5859341128,545096.9541188424,545221.5427424363,TASK1
2026-05-26T10:00:15.599+00:00,764,51750,212551.54461283024,207296.56008440972,544434.6495788872,544490.3054225809,205056.0435719542,545448.3905969132,545097.4905607094,545222.3474052367,TASK1
2026-05-26T10:00:15.599+00:00,764,51751,212551.54461283024,207298.9740728109,544453.1568232962,544508.8126669899,205058.9940022223,545471.994039058,545120.8257819207,545245.682626448,TASK1
2026-05-26T10:00:15.599+00:00,764,51752,212543.83326099315,207293.676709375,544605.2380925701,544660.8939362639,205055.57418532064,545630.7808316685,545279.6125745311,545404.737639992,TASK1
2026-05-26T10:00:15.599+00:00,764,51753,212532.09859515412,207280.8691598021,544692.1416750123,544747.7975187061,205037.9386589454,545707.4920186391,545356.8602033687,545481.717047896,TASK1
2026-05-26T10:00:15.599+00:00,764,51754,212517.413499047,207267.2569474288,544667.2641834336,544723.1882480608,205016.01159763476,545681.5416433265,545330.3733861892,545455.49845165,TASK1
2026-05-26T10:00:15.599+00:00,764,51755,212500.8508564056,207256.0587234567,544651.2379826591,544706.8938263529,204997.57140845913,545665.515442552,545314.0789644812,545439.204029942,TASK1
2026-05-26T10:00:15.599+00:00,764,51756,212482.67888816344,207245.39694135153,544640.8444214874,544696.5002651812,204983.95919608584,545654.8536604468,545303.953624243,545428.8104687703,TASK1
2026-05-26T10:00:15.599+00:00,764,51757,212463.16581525395,207237.9538104479,544626.4275463137,544682.3516109409,204972.49275118025,545640.7050062066,545289.8049700027,545414.6618145301,TASK1
2026-05-26T10:00:15.599+00:00,764,51758,212444.72562607832,207232.656447012,544610.6695664728,544666.8618520334,204963.1720737424,545624.9470263657,545274.0469901618,545398.9038346892,TASK1
2026-05-26T10:00:15.599+00:00,764,51759,212433.79562303968,207227.09086264262,544600.8124471679,544657.2729536621,204957.60648937302,545615.0899070608,545264.189870857,545389.3149363179,TASK1
2026-05-26T10:00:15.599+00:00,764,51760,212427.42537586993,207227.62730450954,544599.2701768005,544655.4624623612,204953.1137887375,545613.5476366935,545262.6476004896,545388.0408868839,TASK1
2026-05-26T10:00:15.599+00:00,764,51761,212420.25046589976,207229.23663011033,544597.4596854997,544653.9201919938,204952.9126230374,545612.2735872595,545261.3735510557,545386.230395583,TASK1
2026-05-26T10:00:15.599+00:00,764,51762,212412.00267219575,207225.0121504083,544588.1390080618,544644.063072689,204954.25372770472,545602.4164679548,545251.7846526843,545376.9097181452,TASK1
2026-05-26T10:00:15.599+00:00,764,51763,212404.29132035866,207222.12877537354,544575.5996794223,544631.791964983,204951.10213173652,545589.8771393152,545238.9771031115,545364.1021685723,TASK1
2026-05-26T10:00:15.599+00:00,764,51764,212400.06684065663,207221.12294687305,544570.034095053,544626.4946015471,204947.68231483488,545584.5797758794,545233.6797396755,545358.8048051363,TASK1
2026-05-26T10:00:15.599+00:00,764,51765,212397.1834656219,207220.11711837258,544570.8387578534,544627.031043414,204946.14004446747,545585.1162177463,545234.4844024759,545359.3412470033,TASK1
2026-05-26T10:00:15.599+00:00,764,51766,212395.90941618793,207216.6973014709,544570.8387578534,544627.2992643475,204946.14004446747,545585.6526596132,545234.4844024759,545359.6094679367,TASK1
2026-05-26T10:00:15.599+00:00,764,51767,212391.41671555242,207211.93637990192,544564.7367316171,544621.4654590447,204945.13421596697,545579.8188543104,545228.650597173,545353.5074417004,TASK1
2026-05-26T10:00:15.599+00:00,764,51768,212385.24763408277,207212.9422084024,544553.9408390452,544609.5966827389,204945.53654736717,545567.7489123045,545217.1170970341,545342.1751072615,TASK1
2026-05-26T10:00:15.599+00:00,764,51769,212380.48671251378,207218.84306893862,544547.302370942,544603.2264355691,204944.79893980015,545561.1104442013,545210.4786289309,545336.0730810253,TASK1
2026-05-26T10:00:15.599+00:00,764,51770,212378.40800027942,207224.2074876079,544546.2965424415,544602.7570489355,204941.110901965,545560.3728366343,545209.7410213639,545334.7990315913,TASK1
2026-05-26T10:00:15.599+00:00,764,51771,212378.20683457932,207228.23080160984,544545.5589348745,544601.7512204351,204939.5686315976,545559.6352290673,545209.0034137969,545334.0614240243,TASK1
2026-05-26T10:00:15.599+00:00,764,51772,212379.8161601801,207227.7614149763,544536.2382574365,544592.1623220637,204939.5686315976,545550.3145516294,545199.682736359,545324.7407465865,TASK1
2026-05-26T10:00:15.599+00:00,764,51773,212381.4254857809,207228.02963590974,544523.6989287972,544579.6229934243,204939.5686315976,545537.2387811231,545186.6069658527,545312.201417947,TASK1
2026-05-26T10:00:15.599+00:00,764,51774,212382.49836951477,207235.8080429802,544517.3286816274,544573.2527462546,204943.860166533,545530.8685339533,545180.2367186829,545306.0993917107,TASK1
2026-05-26T10:00:15.599+00:00,764,51775,212384.64413698248,207243.05000818372,544517.1275159273,544573.0515805545,204948.15170146842,545530.6673682532,545180.2367186829,545305.8982260106,TASK1
2026-05-26T10:00:15.599+00:00,764,51776,212385.1805788494,207252.16951992147,544516.3899083603,544572.5821939209,204951.10213173652,545530.1979816196,545179.4991111158,545305.428839377,TASK1
2026-05-26T10:00:15.599+00:00,764,51777,212384.1747503489,207261.28903165925,544508.1421146563,544564.6026211503,204956.19832947233,545522.2184088491,545171.2513174119,545296.6446038061,TASK1
2026-05-26T10:00:15.599+00:00,764,51778,212381.8278171811,207266.92167126198,544495.8710069503,544552.3315134444,204958.6123178735,545509.6790802097,545159.2484306394,545284.3734961002,TASK1
2026-05-26T10:00:15.599+00:00,764,51779,212378.40800027942,207272.0178689978,544490.0372016474,544546.4977081416,204961.29452720814,545504.1134958402,545153.6828462699,545279.0761326642,TASK1
2026-05-26T10:00:15.599+00:00,764,51780,212380.0173258802,207276.84584580013,544491.6465272482,544548.1070337424,204965.85428307703,545505.722821441,545155.0239509373,545280.4172373315,TASK1
2026-05-26T10:00:15.599+00:00,764,51781,212383.50419801523,207280.8691598021,544497.279166851,544554.0078942785,204970.6822598794,545513.5012285114,545162.8023580078,545287.9274234686,TASK1
2026-05-26T10:00:15.599+00:00,764,51782,212385.3817445495,207281.13738073557,544533.4889928686,544590.2177202961,204972.29158548015,545551.3203801299,545200.6215096262,545325.746575087,TASK1
2026-05-26T10:00:15.599+00:00,764,51783,212383.5712532486,207280.667994102,544539.9262952717,544596.3868017658,204970.4810941793,545554.0025894645,545203.3037189607,545328.1605634881,TASK1
2026-05-26T10:00:15.599+00:00,764,51784,212378.81033167962,207282.0090987693,544527.6551875657,544583.8474731264,204967.06127727762,545541.1950398916,545190.2279484544,545315.0847929817,TASK1
2026-05-26T10:00:15.599+00:00,764,51785,212375.39051477797,207284.9595290374,544523.9671497307,544580.4276562247,204965.78722784368,545537.5070020565,545186.8081315528,545311.3967551466,TASK1
2026-05-26T10:00:15.599+00:00,764,51786,212371.9706978763,207290.05572677322,544522.1566584298,544578.3489439904,204963.70851560932,545535.6965107556,545184.7294193184,545309.8544847792,TASK1
2026-05-26T10:00:15.599+00:00,764,51787,212369.35554377505,207294.34726170864,544513.1042019253,544569.296487486,204961.36158244152,545526.6440542513,545175.676962814,545301.3384701418,TASK1
2026-05-26T10:00:15.599+00:00,764,51788,212365.39928500645,207299.175238511,544499.491989552,544556.2207169796,204961.629803375,545513.3000628114,545162.6011923077,545287.994478702,TASK1
2026-05-26T10:00:15.599+00:00,764,51789,212361.44302623786,207306.68542464796,544493.3899633158,544549.8504698098,204962.70268710883,545506.6615947082,545155.9627242044,545281.3560105987,TASK1
2026-05-26T10:00:15.599+00:00,764,51790,212361.24186053776,207313.65916891803,544494.7310679831,544550.9233535437,204963.50734990923,545508.0026993755,545157.0356079383,545282.4288943325,TASK1
2026-05-26T10:00:15.599+00:00,764,51791,212361.77830240468,207316.60959918614,544494.7310679831,544551.1915744771,204965.11667551,545508.270920309,545157.3038288717,545282.697115266,TASK1
2026-05-26T10:00:15.599+00:00,764,51792,212361.30891577114,207319.29180852076,544485.9468324122,544541.8708970393,204968.3353267116,545499.2184638046,545148.5195933008,545273.9128796951,TASK1
2026-05-26T10:00:15.599+00:00,764,51793,212361.84535763806,207325.59500045716,544474.3462770398,544530.2032864336,204974.37029771451,545487.6849636657,545136.8519826952,545262.2452690894,TASK1
2026-05-26T10:00:15.599+00:00,764,51794,212363.18646230537,207332.83696566068,544467.9760298701,544523.5648183305,204977.05250704914,545481.0464955624,545130.2135145919,545255.6068009862,TASK1
2026-05-26T10:00:15.599+00:00,764,51795,212363.99112510576,207338.73782619688,544469.5853554709,544525.1741439312,204977.85716984954,545482.6558211632,545131.8228401927,545257.216126587,TASK1
2026-05-26T10:00:15.599+00:00,764,51796,212367.2097763073,207343.8340239327,544472.535785739,544528.1245741993,204978.9300535834,545486.6791351652,545136.1143751281,545261.2394405889,TASK1
2026-05-26T10:00:15.599+00:00,764,51797,212367.2097763073,207348.1255588681,544489.4337045471,544545.290713941,204977.9242250829,545505.722821441,545155.158061404,545280.0149059313,TASK1
2026-05-26T10:00:15.599+00:00,764,51798,212363.25351753875,207348.9302216685,544492.9205766822,544548.7775860761,204975.04085004816,545506.5274842414,545155.6945032709,545280.8195687317,TASK1
2026-05-26T10:00:15.599+00:00,764,51799,212362.24768903825,207346.85150943417,544484.6727829782,544540.7980133054,204973.2303587473,545498.2796905375,545147.446709567,545272.5717750278,TASK1
2026-05-26T10:00:15.599+00:00,764,51800,212364.92989837288,207345.30923906673,544484.2033963447,544540.0604057384,204971.15164651294,545498.0785248374,545147.2455438669,545272.3706093277,TASK1
2026-05-26T10:00:15.599+00:00,764,51801,212367.34388677406,207342.425864032,544481.5882422434,544537.1770307038,204969.0729342786,545495.4633707361,545144.3621688321,545269.4872342929,TASK1
2026-05-26T10:00:15.886+00:00,765,51802,212369.48965424177,207341.15181459807,544470.9264601382,544526.783469532,204968.06710577811,545484.8015886309,545133.7003867269,545258.8254521877,TASK1
2026-05-26T10:00:15.886+00:00,765,51803,212370.29431704216,207337.46377676292,544458.3871314988,544514.2441408925,204967.59771914454,545471.7258181245,545121.1610580875,545246.0179026149,TASK1
2026-05-26T10:00:15.886+00:00,765,51804,212374.3176310441,207332.43463426048,544451.7486633955,544507.8738937228,204967.128332511,545465.3555709547,545114.5225899842,545239.1112135781,TASK1
2026-05-26T10:00:15.886+00:00,765,51805,212376.99984037876,207330.6241429596,544453.0897680628,544508.6785565232,204971.15164651294,545466.4284546886,545115.8636946516,545240.7205391789,TASK1
2026-05-26T10:00:15.886+00:00,765,51806,212379.4138287799,207332.2334685604,544452.8886023627,544508.4773908231,204974.37029771451,545466.4284546886,545115.8636946516,545240.5193734788,TASK1
2026-05-26T10:00:15.886+00:00,765,51807,212380.75493344723,207329.88653539258,544443.8361458584,544499.4249343186,204977.05250704914,545457.6442191177,545106.8112381472,545231.4669169744,TASK1
2026-05-26T10:00:15.886+00:00,765,51808,212381.8278171811,207324.05273008975,544431.5650381524,544487.4220475461,204981.34404198456,545445.3731114117,545094.8083513747,545219.4640302019,TASK1
2026-05-26T10:00:15.886+00:00,765,51809,212387.46045678383,207318.48714572037,544427.0723375168,544482.9293469107,204986.44023972037,545440.6121898427,545090.3156507391,545214.9713295664,TASK1
2026-05-26T10:00:15.886+00:00,765,51810,212394.70242198734,207316.67665441948,544428.1452212507,544484.0022306446,204993.41398399044,545441.6850735766,545091.388534473,545216.3124342337,TASK1
2026-05-26T10:00:15.886+00:00,765,51811,212398.99395692276,207315.40260498555,544428.9498840511,544484.806893445,204998.7784026597,545443.0261782439,545092.4614182069,545217.653538901,TASK1
2026-05-26T10:00:15.886+00:00,765,51812,212397.45168655535,207310.10524154964,544427.1393927502,544482.9964021441,205002.80171666166,545441.7521288099,545090.9191478394,545216.1112685336,TASK1
2026-05-26T10:00:15.886+00:00,765,51813,212396.44585805485,207300.24812224484,544418.0869362458,544474.2121665732,205003.8746003955,545432.4314513721,545081.5984704016,545206.7905910958,TASK1
2026-05-26T10:00:15.886+00:00,765,51814,212396.71407898833,207292.2685494743,544413.5942356103,544469.4512450041,205005.21570506284,545427.6705298031,545076.8375488326,545202.0296695268,TASK1
2026-05-26T10:00:15.886+00:00,765,51815,212397.7869627222,207287.23940697184,544415.2035612111,544471.0605706049,205010.04368186518,545429.8162972708,545078.7150953668,545203.6389951276,TASK1
2026-05-26T10:00:15.886+00:00,765,51816,212399.1280673895,207283.55136913672,544416.0082240115,544471.8652334053,205009.5742952316,545430.6209600712,545079.7879791007,545204.443657928,TASK1
2026-05-26T10:00:15.886+00:00,765,51817,212396.51291328823,207276.1082382331,544407.7604303075,544463.6174397013,205005.8862573965,545422.1049454338,545071.2719644633,545196.195864224,TASK1
2026-05-26T10:00:15.886+00:00,765,51818,212393.36131732003,207265.44645612795,544395.4893226015,544451.3463319953,205002.19821956137,545409.8338377278,545058.7326358238,545183.6565355845,TASK1
2026-05-26T10:00:15.886+00:00,765,51819,212393.6295382535,207258.53976709125,544391.2648428995,544447.6582941602,204998.24196079277,545405.6093580257,545054.5081561218,545179.4320558825,TASK1
2026-05-26T10:00:15.886+00:00,765,51820,212402.54788429115,207257.06455195718,544396.0257644685,544451.6145529288,204998.30901602615,545409.4315063276,545058.397359657,545183.5224251178,TASK1
2026-05-26T10:00:15.886+00:00,765,51821,212408.71696576083,207255.52228158977,544396.5622063354,544452.1509947957,204998.30901602615,545409.9679481945,545058.9338015239,545183.7906460513,TASK1
2026-05-26T10:00:15.886+00:00,765,51822,212411.39917509546,207251.02958095426,544389.3872963652,544445.244305759,204994.88919912447,545402.7930382243,545052.0271124872,545177.152177948,TASK1
2026-05-26T10:00:15.886+00:00,765,51823,212414.34960536356,207243.05000818372,544378.9937351935,544434.5825236539,204994.15159155746,545392.1312561192,545041.365330382,545166.7586167763,TASK1
2026-05-26T10:00:15.886+00:00,765,51824,212419.44580309937,207238.02086568126,544373.1599298907,544428.4804974175,204996.56557995864,545385.7610089494,545035.2633041458,545160.6565905401,TASK1
2026-05-26T10:00:15.886+00:00,765,51825,212428.8335357706,207236.74681624732,544373.964592691,544428.748718351,205000.05245209366,545386.5656717498,545035.7997460127,545161.4612533405,TASK1
2026-05-26T10:00:15.886+00:00,765,51826,212436.3437219076,207233.0587784122,544391.3989533662,544446.1830790262,205006.75797543026,545408.2915673604,545057.5256416232,545183.187148951,TASK1
2026-05-26T10:00:15.886+00:00,765,51827,212436.3437219076,207221.59233350662,544513.1712571587,544568.2236037521,205007.0261963637,545535.1600688887,545184.3941431516,545309.7874295459,TASK1
2026-05-26T10:00:15.886+00:00,765,51828,212427.29126540318,207207.4436792664,544569.4976531861,544624.818220713,204993.95042585736,545583.4398369122,545232.673911175,545358.3354185028,TASK1
2026-05-26T10:00:15.886+00:00,765,51829,212412.87439022952,207190.61281569157,544547.8388128089,544602.8911594023,204978.7288878833,545560.9763337346,545210.2104079975,545335.8719153252,TASK1
2026-05-26T10:00:15.886+00:00,765,51830,212402.21260812433,207170.02685904823,544536.9088097702,544592.2293772971,204966.18955924385,545550.046330696,545199.5486258923,545324.9419122866,TASK1
2026-05-26T10:00:15.886+00:00,765,51831,212395.0376981542,207151.5866698726,544529.7338998001,544584.7862463935,204957.6735446064,545542.6031997923,545192.1054949886,545317.2305604494,TASK1
2026-05-26T10:00:15.886+00:00,765,51832,212385.44879978287,207135.56046909816,544516.9263502272,544572.2469177541,204953.98550677128,545530.0638711529,545179.5661663492,545304.4230108765,TASK1
2026-05-26T10:00:15.886+00:00,765,51833,212377.4692270123,207124.09402419257,544503.0459169204,544558.6347053808,204948.15170146842,545516.4516587796,545165.9539539759,545291.0790194367,TASK1
2026-05-26T10:00:15.886+00:00,765,51834,212374.3176310441,207115.30978862164,544495.0663441499,544550.3869116767,204942.8543380325,545508.4720860091,545157.7061602719,545282.8312257327,TASK1
2026-05-26T10:00:15.886+00:00,765,51835,212372.50713974322,207105.72089025032,544494.8651784498,544550.3869116767,204943.122558966,545508.4720860091,545157.9743812054,545282.8312257327,TASK1
2026-05-26T10:00:15.886+00:00,765,51836,212370.4284275089,207095.3273290786,544496.2062831172,544551.9962372775,204942.1167304655,545509.5449697429,545159.0472649393,545283.9041094666,TASK1
2026-05-26T10:00:15.886+00:00,765,51837,212369.4225990084,207084.39732603994,544489.0313731469,544544.8213273074,204937.08758796306,545502.6382807062,545152.1405759025,545276.99742043,TASK1
2026-05-26T10:00:15.886+00:00,765,51838,212368.68499144138,207076.4177532694,544477.0284863744,544532.8184405349,204933.13132919447,545490.6353939337,545140.13768913,545265.2627545908,TASK1
2026-05-26T10:00:15.886+00:00,765,51839,212368.95321237485,207074.60726196851,544470.9264601382,544526.4481933651,204935.54531759565,545484.5333676974,545134.0356628938,545259.428949288,TASK1
2026-05-26T10:00:15.886+00:00,765,51840,212372.70830544332,207075.4119247689,544471.9993438721,544527.521077099,204939.83685253107,545485.3380304978,545134.8403256942,545259.965391155,TASK1
2026-05-26T10:00:15.886+00:00,765,51841,212377.53628224568,207069.84634039956,544473.3404485394,544529.1304026998,204942.25084093225,545486.9473560986,545136.449651295,545261.5747167558,TASK1
2026-05-26T10:00:15.886+00:00,765,51842,212378.60916597952,207062.13498856247,544469.3841897708,544524.9059229977,204944.6648293334,545482.7228763965,545131.9569506594,545257.3502370537,TASK1
2026-05-26T10:00:15.886+00:00,765,51843,212379.14560784647,207057.64228792695,544458.9906285991,544514.512361826,204944.4636636333,545472.3293152248,545121.5633894877,545247.2248968154,TASK1
2026-05-26T10:00:15.886+00:00,765,51844,212382.90070091496,207058.17872979387,544453.9614860966,544510.0196611905,204943.99427699976,545467.5683936558,545117.0706888522,545242.7321961799,TASK1
2026-05-26T10:00:15.886+00:00,765,51845,212389.60622425153,207060.59271819505,544454.766148897,544510.8243239908,204945.0671607336,545468.6412773897,545117.8753516526,545243.5368589803,TASK1
2026-05-26T10:00:15.886+00:00,765,51846,212396.5799685216,207059.85511062804,544454.766148897,544510.6231582907,204949.6269166025,545468.4401116896,545117.405965019,545243.3356932802,TASK1
2026-05-26T10:00:15.886+00:00,765,51847,212400.87150345702,207060.39155249496,544447.8594598603,544503.1800273872,204952.3091259371,545460.996980786,545110.2310550489,545236.1607833101,TASK1
2026-05-26T10:00:15.886+00:00,765,51848,212399.59745402305,207060.6597734284,544438.2705614889,544493.8593499493,204950.23041370278,545451.4080824147,545100.9103776109,545226.5718849387,TASK1
2026-05-26T10:00:15.886+00:00,765,51849,212397.25052085525,207061.4644362288,544432.4367561862,544488.2937655799,204949.2245852023,545445.8424980453,545095.3447932416,545221.0063005694,TASK1
2026-05-26T10:00:15.886+00:00,765,51850,212396.7811342217,207063.6102036965,544434.3143027204,544489.9030911807,204951.90679453692,545447.7200445795,545096.9541188424,545222.8838471036,TASK1
2026-05-26T10:00:15.886+00:00,765,51851,212399.79861972315,207069.37695376598,544437.734119622,544493.3899633158,204958.54526264014,545450.6704748477,545099.9716043439,545225.3648907382,TASK1
2026-05-26T10:00:15.886+00:00,765,51852,212400.60328252355,207073.6684887014,544431.3638724523,544487.2879370794,204957.80765507312,545444.3002276779,545093.6013571741,545219.2628645018,TASK1
2026-05-26T10:00:15.886+00:00,765,51853,212399.86567495653,207077.4235817699,544420.4338694137,544476.3579340408,204953.3149544376,545433.9066665062,545083.2077960024,545208.8693033301,TASK1
2026-05-26T10:00:15.886+00:00,765,51854,212400.40211682345,207079.83757017108,544415.9411687781,544471.8652334053,204948.28581193517,545429.6821868041,545078.4468744334,545204.3766026946,TASK1
2026-05-26T10:00:15.886+00:00,765,51855,212404.96187269234,207083.05622137262,544419.9644827801,544475.6203264738,204944.8659950335,545433.4372798726,545082.2019675019,545208.3999166966,TASK1
2026-05-26T10:00:15.886+00:00,765,51856,212407.10764016004,207078.83174167058,544426.1335642497,544481.7894079435,204945.13421596697,545441.7521288099,545090.7850373727,545216.7147656339,TASK1
2026-05-26T10:00:15.886+00:00,765,51857,212405.29714885916,207064.14664556345,544460.1976227997,544515.5852455599,204943.59194559956,545478.7666176279,545127.5313052572,545253.4610335184,TASK1
2026-05-26T10:00:15.886+00:00,765,51858,212403.4866575583,207045.70645638782,544477.0955416078,544532.4831643681,204939.63568683097,545491.6412224342,545140.13768913,545265.7991964578,TASK1
2026-05-26T10:00:15.886+00:00,765,51859,212403.4866575583,207027.53448814564,544467.77486417,544523.4307078636,204938.89807926395,545482.0523240629,545130.5487907587,545256.2102980865,TASK1
2026-05-26T10:00:15.886+00:00,765,51860,212408.5828552941,207012.0447292381,544464.6232682018,544520.547332829,204939.9709629978,545478.9007280947,545127.665415724,545253.3269230517,TASK1
2026-05-26T10:00:15.886+00:00,765,51861,212415.55659956415,206994.67742379635,544462.812776901,544518.7368415281,204940.23918393126,545476.8220158604,545125.5867034897,545251.5164317508,TASK1
2026-05-26T10:00:15.886+00:00,765,51862,212418.50702983225,206974.8961299534,544454.2967622634,544510.489047824,204943.72605606628,545468.5742221563,545117.3389097856,545243.2686380468,TASK1
2026-05-26T10:00:15.886+00:00,765,51863,212417.23298039832,206961.82035944704,544440.6845498901,544496.6086145174,204948.55403286862,545454.962009783,545103.9949183458,545229.6564256735,TASK1
2026-05-26T10:00:15.886+00:00,765,51864,212414.61782629704,206954.10900760998,544435.6554073876,544491.5794720149,204953.65023060443,545449.9328672806,545098.9657758434,545224.3590622377,TASK1
2026-05-26T10:00:15.886+00:00,765,51865,212413.88021873002,206949.07986510752,544437.8011748554,544493.7252394826,204957.94176553987,545452.0786347484,545100.8433223777,545226.5048297053,TASK1
2026-05-26T10:00:15.886+00:00,765,51866,212414.95310246386,206944.05072260508,544437.8011748554,544493.9934604161,204960.6239748745,545452.0786347484,545101.111543311,545226.5048297053,TASK1
2026-05-26T10:00:15.886+00:00,765,51867,212415.22132339733,206932.85249863297,544430.3580439518,544486.5503295125,204960.15458824093,545444.3672829112,545093.400191474,545218.7934778683,TASK1
2026-05-26T10:00:15.886+00:00,765,51868,212412.60616929605,206919.50850719315,544418.8915990462,544474.8156636734,204959.95342254083,545432.9008380057,545081.9337465684,545207.3270329627,TASK1
2026-05-26T10:00:15.886+00:00,765,51869,212412.60616929605,206908.04206228757,544414.1306774772,544470.0547421044,204963.70851560932,545428.1399164366,545077.1728249994,545202.5661113937,TASK1
2026-05-26T10:00:15.886+00:00,765,51870,212413.94727396336,206901.94003605127,544416.2764449449,544472.2005095722,204967.46360867782,545430.2856839044,545079.0503715337,545204.443657928,TASK1
2026-05-26T10:00:15.886+00:00,765,51871,212413.94727396336,206898.25199821615,544418.9586542796,544475.1509398402,204968.80471334513,545433.7725560394,545082.5372436687,545207.6623091295,TASK1
2026-05-26T10:00:15.886+00:00,765,51872,212412.47205882933,206892.75346908014,544420.3668141803,544476.0897131073,204971.8221988466,545433.9066665062,545083.0736855357,545208.1987509965,TASK1
2026-05-26T10:00:15.886+00:00,765,51873,212407.9793581938,206887.99254751118,544410.777915809,544466.2325938025,204974.50440818124,545423.7813262679,545072.9483452974,545198.0734107582,TASK1
2026-05-26T10:00:15.886+00:00,765,51874,212403.75487849175,206882.96340500872,544405.480552373,544460.9352303667,204976.91839658242,545418.7521837654,545068.1874237284,545193.0442682558,TASK1
2026-05-26T10:00:15.886+00:00,765,51875,212401.6761662574,206874.1791694378,544407.0898779738,544462.5445559674,204981.74637338475,545420.3615093662,545069.7967493292,545194.6535938565,TASK1
2026-05-26T10:00:15.886+00:00,765,51876,212400.40211682345,206868.6135850684,544407.6263198408,544463.0809978343,204987.37901298748,545420.6297302997,545070.0649702627,545195.1900357235,TASK1
2026-05-26T10:00:16.181+00:00,766,51877,212397.51874178872,206861.70689603174,544399.6467470702,544455.3696459973,204994.35275725755,545413.4548203296,545062.8900602926,545188.2833466867,TASK1
2026-05-26T10:00:16.181+00:00,766,51878,212396.24469235478,206848.63112552537,544388.7167440315,544444.7078638921,205002.93582712839,545401.9883754239,545051.6918363204,545177.0851227146,TASK1
2026-05-26T10:00:16.181+00:00,766,51879,212397.5857970221,206835.55535501902,544382.8829387287,544438.8740585892,205010.1777923319,545396.1545701211,545045.8580310176,545170.9830964784,TASK1
2026-05-26T10:00:16.181+00:00,766,51880,212402.14555289096,206824.89357291383,544384.2240433961,544440.48338419,205011.25067606577,545397.7638957219,545047.4673566184,545172.5924220792,TASK1
2026-05-26T10:00:16.181+00:00,766,51881,212404.8277622256,206815.57289547598,544386.1015899302,544442.6291516578,205010.24484756528,545399.9096631897,545049.613124086,545174.20174768,TASK1
2026-05-26T10:00:16.181+00:00,766,51882,212405.09598315906,206808.93442737276,544379.7313427605,544435.9906835546,205012.65883596646,545394.0758578868,545043.5110978498,545167.8315005102,TASK1
2026-05-26T10:00:16.181+00:00,766,51883,212406.97352969332,206800.68663366875,544369.6060025223,544425.8653433162,205018.55969650266,545383.6822967151,545032.8493157446,545157.7061602719,TASK1
2026-05-26T10:00:16.181+00:00,766,51884,212410.19218089487,206794.58460743245,544364.0404181529,544420.2997589469,205020.97368490382,545377.8484914122,545027.2837313752,545152.1405759025,TASK1
2026-05-26T10:00:16.181+00:00,766,51885,212413.41083209644,206790.09190679694,544366.4544065541,544422.4455264147,205020.77251920372,545380.2624798134,545029.6977197764,545154.5545643037,TASK1
2026-05-26T10:00:16.181+00:00,766,51886,212414.75193676376,206783.4534386937,544391.1307324327,544447.3900732268,205021.30896107067,545410.0350034279,545059.7384643243,545184.5953088517,TASK1
2026-05-26T10:00:16.181+00:00,766,51887,212405.96770119283,206770.91411005426,544538.1158039708,544594.6433656983,205017.0844813686,545560.7751680345,545210.4786289309,545335.0672525248,TASK1
2026-05-26T10:00:16.181+00:00,766,51888,212390.4779422853,206751.13281621132,544585.054467327,544641.0455871875,205000.79005966068,545598.5943196529,545248.5660014828,545373.1546250767,TASK1
2026-05-26T10:00:16.181+00:00,766,51889,212373.9152996439,206726.52354556604,544560.9816385485,544617.2409793426,204985.03207981968,545574.2532699411,545224.224951771,545349.0817962983,TASK1
2026-05-26T10:00:16.181+00:00,766,51890,212362.44885473835,206705.9375889227,544551.1245192438,544607.1156391044,204972.2245302468,545564.3961506363,545214.3678324661,545339.2246769934,TASK1
2026-05-26T10:00:16.181+00:00,766,51891,212353.66461916742,206691.25249281555,544544.4860511406,544600.2089500676,204960.75808534122,545557.2212406661,545207.7293643629,545332.3179879568,TASK1
2026-05-26T10:00:16.181+00:00,766,51892,212343.80749986263,206677.64028044228,544531.6785015677,544587.6696214282,204949.0234195022,545544.4136910932,545194.6535938565,545319.2422174504,TASK1
2026-05-26T10:00:16.181+00:00,766,51893,212334.2186014913,206666.9784983371,544515.9205217267,544572.1798625207,204934.07010246158,545528.9239321856,545178.8956140155,545303.4842376094,TASK1
2026-05-26T10:00:16.181+00:00,766,51894,212327.04369152113,206661.14469303426,544507.1362861558,544563.1274060163,204923.67654128987,545520.1396966147,545170.1113784446,545294.7000020385,TASK1
2026-05-26T10:00:16.181+00:00,766,51895,212323.08743275254,206656.9202133322,544507.4045070893,544563.3956269497,204919.45206158783,545520.9443594151,545170.916041245,545295.5046648389,TASK1
2026-05-26T10:00:16.181+00:00,766,51896,212318.0582902501,206651.08640802937,544506.9351204557,544562.9262403162,204916.03224468615,545520.2067518481,545170.7148755449,545295.0352782053,TASK1
2026-05-26T10:00:16.181+00:00,766,51897,212313.5655896146,206645.38671319326,544501.2354256195,544556.4889379131,204913.48414581825,545514.708222712,545163.7411312748,545289.1344176691,TASK1
2026-05-26T10:00:16.181+00:00,766,51898,212310.4139936464,206634.99315202155,544490.0372016474,544545.290713941,204907.38211958195,545503.5099987399,545152.8111282362,545277.936193697,TASK1
2026-05-26T10:00:16.181+00:00,766,51899,212309.13994421242,206627.28180018446,544483.6669544777,544538.9204667712,204901.8165352126,545496.8715306368,545146.172660133,545271.2977255938,TASK1
2026-05-26T10:00:16.181+00:00,766,51900,212310.7492698132,206626.8124135509,544484.4716172781,544539.993350505,204899.4696020448,545497.9444143706,545146.9773229334,545272.1023883942,TASK1
2026-05-26T10:00:16.181+00:00,766,51901,212314.77258381518,206625.00192225003,544498.4191058181,544553.9408390452,204898.4637735443,545516.1834378461,545165.2163464089,545290.0731909362,TASK1
2026-05-26T10:00:16.181+00:00,766,51902,212314.3031971816,206611.6579308102,544592.2964325305,544647.8181657575,204895.3121775761,545613.815857627,545262.8487661897,545387.7056107171,TASK1
2026-05-26T10:00:16.181+00:00,766,51903,212306.860066278,206585.97577643106,544630.6520260158,544686.1737592428,204885.72327920477,545645.1977068422,545294.2306154049,545419.3556808657,TASK1
2026-05-26T10:00:16.181+00:00,766,51904,212297.0029469732,206555.46564524958,544612.7482787071,544668.0017910006,204879.353032035,545626.7575176666,545275.5222052959,545400.6472707567,TASK1
2026-05-26T10:00:16.181+00:00,766,51905,212291.43736260384,206531.3928164712,544604.5004850031,544659.4857763632,204874.0556685991,545618.5097239625,545267.5426325253,545392.6676979861,TASK1
2026-05-26T10:00:16.181+00:00,766,51906,212288.01754570217,206507.31998769284,544598.9349006338,544654.1884129272,204867.41720049587,545612.9441395932,545261.977048156,545387.1021136168,TASK1
2026-05-26T10:00:16.181+00:00,766,51907,212286.47527533476,206485.66114731564,544586.9320138613,544642.4537470882,204860.24229052573,545601.2094737542,545249.70594045,545375.3674477777,TASK1
2026-05-26T10:00:16.181+00:00,766,51908,212285.46944683426,206470.43960934159,544573.319801488,544628.8415347149,204849.04406655362,545587.3290404474,545236.0937280767,545361.7552354045,TASK1
2026-05-26T10:00:16.181+00:00,766,51909,212282.85429273298,206458.973164436,544566.1448915178,544621.6666247448,204839.72338911574,545580.1541304772,545228.650597173,545354.3121045008,TASK1
2026-05-26T10:00:16.181+00:00,766,51910,212281.84846423252,206449.11604513123,544566.4131124512,544622.2030666117,204834.96246754675,545580.9587932776,545228.9188181065,545354.8485463677,TASK1
2026-05-26T10:00:16.181+00:00,766,51911,212282.11668516597,206444.08690262877,544565.6755048842,544621.4654590447,204831.27442971163,545580.2211857106,545228.4494314729,545354.1109388007,TASK1
2026-05-26T10:00:16.181+00:00,766,51912,212283.45778983328,206440.93530666057,544557.6959321137,544613.7541072075,204828.92749654382,545572.2416129401,545220.7380796359,545346.1313660302,TASK1
2026-05-26T10:00:16.181+00:00,766,51913,212287.21288290177,206437.24726882545,544545.6930453412,544601.2147785681,204825.50767964218,545559.4340633672,545208.4669719299,545333.8602583242,TASK1
2026-05-26T10:00:16.181+00:00,766,51914,212291.5044178372,206439.1248153597,544539.3227981714,544594.8445313984,204822.8925255409,545553.3320371308,545202.3649456936,545327.758232088,TASK1
2026-05-26T10:00:16.181+00:00,766,51915,212296.600615573,206444.48923402897,544540.9321237722,544596.4538569992,204823.16074647437,545554.9413627316,545203.9742712944,545329.3675576887,TASK1
2026-05-26T10:00:16.181+00:00,766,51916,212301.96503424228,206444.75745496244,544542.541449373,544598.0631826,204820.81381330657,545556.5506883324,545205.3153759617,545330.9768832895,TASK1
2026-05-26T10:00:16.181+00:00,766,51917,212306.52479011117,206443.21518459503,544535.6347603363,544591.1564935633,204818.46688013873,545549.6439992958,545198.4086869251,545323.8019733193,TASK1
2026-05-26T10:00:16.181+00:00,766,51918,212310.8163250466,206440.33180956027,544522.8272107634,544578.3489439904,204817.1928307048,545536.8364497229,545185.8693582856,545311.2626446799,TASK1
2026-05-26T10:00:16.181+00:00,766,51919,212315.37608091548,206438.52131825942,544516.9934054606,544572.5151386876,204816.72344407122,545531.00264442,545180.0355529828,545305.428839377,TASK1
2026-05-26T10:00:16.181+00:00,766,51920,212319.39939491742,206439.86242292673,544516.2557978935,544571.7775311205,204820.47853713972,545530.265036853,545179.0297244823,545304.4230108765,TASK1
2026-05-26T10:00:16.181+00:00,766,51921,212326.3731391875,206442.27641132788,544515.5181903265,544571.0399235535,204824.2336302082,545529.5274292859,545178.2921169152,545303.953624243,TASK1
2026-05-26T10:00:16.181+00:00,766,51922,212332.8104415906,206444.42217879562,544506.7339547556,544562.523908916,204823.22780170772,545521.0114146485,545169.7761022778,545295.1693886721,TASK1
2026-05-26T10:00:16.181+00:00,766,51923,212337.10197652603,206446.56794626333,544495.803951717,544551.5939058773,204823.22780170772,545509.5449697429,545158.5778783057,545283.7029437665,TASK1
2026-05-26T10:00:16.181+00:00,766,51924,212344.34394172954,206448.64665849766,544492.1159138818,544548.039978509,204824.97123777523,545505.3204900408,545154.6216195371,545279.947850698,TASK1
2026-05-26T10:00:16.181+00:00,766,51925,212349.70836039883,206452.40175156615,544493.7252394826,544549.3810831764,204826.58056337602,545506.9298156416,545155.9627242044,545281.2889553653,TASK1
2026-05-26T10:00:16.181+00:00,766,51926,212356.41388373543,206454.2792981004,544495.3345650834,544550.7221878436,204832.21320297875,545508.5391412424,545157.5720498052,545282.8982809661,TASK1
2026-05-26T10:00:16.181+00:00,766,51927,212364.46051173934,206450.05481839835,544488.1596551132,544543.8154988069,204834.62719137993,545501.3642312723,545150.6653607686,545275.723370996,TASK1
2026-05-26T10:00:16.181+00:00,766,51928,212367.4109420074,206446.63500149667,544476.4249892741,544532.3490539014,204835.16363324685,545489.6295654332,545139.198915863,545263.988705157,TASK1
2026-05-26T10:00:16.181+00:00,766,51929,212370.62959320899,206444.8245101958,544470.8594049048,544527.0516904654,204839.18694724882,545484.3322019973,545133.3651105601,545258.1548998541,TASK1
2026-05-26T10:00:16.181+00:00,766,51930,212371.43425600938,206441.94113516106,544471.9322886387,544528.1245741993,204845.08780778502,545485.4050857312,545134.1697733605,545259.2277835879,TASK1
2026-05-26T10:00:16.181+00:00,766,51931,212374.116465344,206439.3259810598,544474.3462770398,544530.270341667,204851.52511018814,545489.4283997332,545138.461308296,545263.7875394569,TASK1
2026-05-26T10:00:16.181+00:00,766,51932,212380.8219886806,206434.83328042427,544496.0721726504,544552.264458211,204854.74376138972,545513.031841878,545162.0647504408,545287.659202535,TASK1
2026-05-26T10:00:16.181+00:00,766,51933,212384.5770817491,206429.2676960549,544503.8505797208,544560.0428652815,204853.46971195575,545517.5915977468,545166.3562853761,545292.2189584039,TASK1
2026-05-26T10:00:16.181+00:00,766,51934,212385.11352361602,206421.0199023509,544495.6027860169,544551.526850644,204855.88370035694,545509.3438040428,545157.8402707387,545283.9711647,TASK1
2026-05-26T10:00:16.181+00:00,766,51935,212385.64996548297,206415.45431798152,544494.5969575164,544550.5210221435,204865.80787489508,545508.3379755423,545156.8344422382,545282.697115266,TASK1
2026-05-26T10:00:16.181+00:00,766,51936,212388.3321748176,206411.49805921293,544493.3229080824,544549.515193643,204873.0498400986,545507.0639261084,545155.5603928042,545281.6912867655,TASK1
2026-05-26T10:00:16.181+00:00,766,51937,212390.4779422853,206409.95578884552,544484.806893445,544540.7309580721,204875.73204943325,545498.2796905375,545147.0443781668,545273.1752721281,TASK1
2026-05-26T10:00:16.181+00:00,766,51938,212390.74616321878,206409.48640221197,544473.3404485394,544528.996292233,204876.0002703667,545486.8132456319,545135.5779332612,545261.440606289,TASK1
2026-05-26T10:00:16.181+00:00,766,51939,212392.89193068648,206407.94413184453,544468.8477479038,544524.771812531,204876.53671223362,545482.8569868633,545131.0852326256,545257.216126587,TASK1
2026-05-26T10:00:16.181+00:00,766,51940,212397.71990748882,206405.8654196102,544471.5299572385,544527.4540218656,204878.68247970135,545485.5391961979,545134.0356628938,545259.8983359216,TASK1
2026-05-26T10:00:16.181+00:00,766,51941,212404.69365175886,206404.3231492428,544471.5299572385,544527.4540218656,204879.21892156827,545485.3380304978,545134.3038838272,545259.6971702215,TASK1
2026-05-26T10:00:16.181+00:00,766,51942,212407.91230296044,206399.02578580688,544463.013942601,544518.9380072282,204879.21892156827,545476.8220158604,545125.7878691897,545251.4493765174,TASK1
2026-05-26T10:00:16.181+00:00,766,51943,212406.90647445995,206394.53308517137,544451.0110558285,544506.6668995222,204882.43757276982,545464.5509081543,545113.2485405504,545239.1782688115,TASK1
2026-05-26T10:00:16.181+00:00,766,51944,212405.90064595945,206390.04038453585,544446.2501342595,544501.6377570197,204883.5104565037,545459.5217656519,545108.2193980479,545234.4173472426,TASK1
2026-05-26T10:00:16.181+00:00,766,51945,212408.5828552941,206386.62056763418,544446.7865761265,544502.1741988867,204888.07021237258,545460.0582075189,545108.7558399148,545234.9537891095,TASK1
2026-05-26T10:00:16.181+00:00,766,51946,212410.19218089487,206381.32320419827,544448.9323435941,544504.3199663544,204892.361747308,545462.7404168535,545111.4380492495,545237.3677775107,TASK1
2026-05-26T10:00:16.181+00:00,766,51947,212407.84524772706,206372.53896862734,544447.1218522933,544502.5094750535,204892.1605816079,545461.1981464861,545109.6275579486,545235.8255071433,TASK1
2026-05-26T10:00:16.181+00:00,766,51948,212403.35254709155,206362.68184932254,544435.9236283212,544491.3112510814,204886.863218172,545449.4634806471,545097.8928921096,545224.3590622377,TASK1
2026-05-26T10:00:16.181+00:00,766,51949,212399.39628832295,206354.97049748545,544430.3580439518,544485.4774457786,204881.56585473608,545443.8978962777,545092.5955286736,545218.5252569348,TASK1
2026-05-26T10:00:16.181+00:00,766,51950,212397.5857970221,206348.86847124918,544431.4309276857,544486.5503295125,204877.6095959675,545444.7025590781,545093.400191474,545219.3299197352,TASK1
2026-05-26T10:00:16.181+00:00,766,51951,212394.70242198734,206345.98509621443,544433.0402532865,544488.4278760466,204873.6533371989,545446.5801056123,545095.0095170748,545221.2074662695,TASK1
2026-05-26T10:00:16.468+00:00,767,51952,212390.74616321878,206340.68773277852,544426.1335642497,544481.52118701,204870.23352029725,545439.6734165756,545087.8346071047,545214.3007772327,TASK1
2026-05-26T10:00:16.468+00:00,767,51953,212387.3263463171,206331.9034972076,544415.740003078,544470.8594049048,204867.61836619597,545429.2798554039,545076.904604066,545203.3707741941,TASK1
2026-05-26T10:00:16.468+00:00,767,51954,212383.3700875485,206326.87435470516,544410.979081509,544466.0984833358,204864.46677022777,545424.518933835,545072.4119034305,545198.6098526252,TASK1
2026-05-26T10:00:16.468+00:00,767,51955,212382.2301485813,206331.36705534067,544414.6671193441,544470.1888525712,204862.38805799343,545428.2740269034,545076.5022726658,545202.230835227,TASK1
2026-05-26T10:00:16.468+00:00,767,51956,212380.95609914733,206334.58570654222,544416.0082240115,544471.798178172,204861.38222949294,545429.6151315707,545078.1115982665,545203.5719398942,TASK1
2026-05-26T10:00:16.473+00:00,767,51957,212377.53628224568,206335.3903693426,544409.3697559083,544465.4279310021,204861.38222949294,545422.9766634675,545072.0095720303,545197.2016927245,TASK1
2026-05-26T10:00:16.473+00:00,767,51958,212371.43425600938,206336.9996949434,544399.7808575369,544455.8390326308,204859.30351725858,545413.1195441628,545062.420673659,545187.6127943532,TASK1
2026-05-26T10:00:16.473+00:00,767,51959,212364.52756697268,206335.72564550946,544396.0928197018,544451.8827738622,204854.27437475615,545409.6997272611,545058.7326358238,545184.1929774515,TASK1
2026-05-26T10:00:16.473+00:00,767,51960,212361.64419193796,206334.9880379424,544398.2385871696,544454.02854133,204848.44056945332,545411.8454947288,545060.8784032916,545186.0705239857,TASK1
2026-05-26T10:00:16.473+00:00,767,51961,212356.07860756858,206330.4953373069,544417.5504943789,544473.6086694729,204841.53388041662,545435.9853787405,545084.7500663698,545209.942187064,TASK1
2026-05-26T10:00:16.473+00:00,767,51962,212347.29437199765,206319.83355520174,544563.7309031166,544619.7890782105,204830.3356564445,545588.8713108147,545237.9042193776,545362.8281191383,TASK1
2026-05-26T10:00:16.473+00:00,767,51963,212333.4139386909,206304.07557536074,544647.6840552908,544703.7422303846,204810.01792073465,545663.4367303177,545312.201417947,545437.1253177078,TASK1
2026-05-26T10:00:16.473+00:00,767,51964,212312.82798204757,206285.90360711858,544624.4158893127,544680.2058434732,204790.50484782516,545638.559238739,545287.8603682352,545412.5160470625,TASK1
2026-05-26T10:00:16.473+00:00,767,51965,212298.14288594044,206267.7316388764,544611.6083397398,544667.3982939003,204773.40576331684,545625.7516891661,545275.0528186623,545399.7084974896,TASK1
2026-05-26T10:00:16.473+00:00,767,51966,212285.87177823446,206250.90077530156,544602.5558832355,544658.0776164625,204760.3299928105,545615.8945698612,545265.4639202909,545390.1195991182,TASK1
2026-05-26T10:00:16.473+00:00,767,51967,212273.06422866156,206236.75212106135,544586.7979033944,544642.3196366215,204749.1317688384,545600.1365900203,545249.70594045,545374.3616192772,TASK1
2026-05-26T10:00:16.473+00:00,767,51968,212262.4024465564,206225.8221180227,544569.9670398197,544625.4887730466,204738.73820766667,545583.5739473789,545232.8750768751,545357.2625347689,TASK1
2026-05-26T10:00:16.473+00:00,767,51969,212254.95931565278,206217.84254525215,544560.3781414483,544615.8998746753,204729.4175302288,545573.9850490076,545223.0179575704,545347.6736363976,TASK1
2026-05-26T10:00:16.473+00:00,767,51970,212249.66195221688,206212.2769608828,544558.299429214,544614.3576043078,204723.58372492596,545572.1745577067,545221.4756872029,545346.1313660302,TASK1
2026-05-26T10:00:16.473+00:00,767,51971,212243.55992598057,206205.10205091262,544557.8300425804,544613.6199967408,204719.89568709084,545571.7051710731,545221.0063005694,545345.3937584631,TASK1
2026-05-26T10:00:16.473+00:00,767,51972,212233.4345857423,206197.1224781421,544549.314027943,544604.8357611699,204717.28053298956,545563.1891564357,545212.2220649985,545336.8777438257,TASK1
2026-05-26T10:00:16.473+00:00,767,51973,212224.65035017137,206189.67934723847,544537.8475830373,544593.6375371978,204711.7149486202,545551.72271153,545200.7556200929,545325.947740787,TASK1
2026-05-26T10:00:16.473+00:00,767,51974,212220.96231233625,206184.38198380257,544532.281998668,544588.340173762,204708.83157358546,545546.4253480942,545195.7264775904,545320.6503773511,TASK1
2026-05-26T10:00:16.473+00:00,767,51975,212218.07893730153,206179.35284130013,544533.8913242688,544589.9494993627,204709.09979451893,545548.3028946284,545197.3358031912,545322.2597029519,TASK1
2026-05-26T10:00:16.473+00:00,767,51976,212219.15182103537,206177.40823953252,544537.244085937,544593.1681505642,204709.23390498565,545551.3203801299,545200.1521229926,545325.41129892,TASK1
2026-05-26T10:00:16.473+00:00,767,51977,212218.41421346835,206175.59774823164,544532.7513853016,544588.6754499287,204703.93654154975,545546.2912376274,545195.659422357,545320.6503773511,TASK1
2026-05-26T10:00:16.473+00:00,767,51978,212211.77574536513,206175.86596916508,544522.6260450633,544578.281888757,204695.68874784574,545536.1658973892,545184.9976402519,545310.2568161794,TASK1
2026-05-26T10:00:16.473+00:00,767,51979,212206.47838192922,206178.81639943318,544515.7193560266,544571.1069787869,204690.92782627678,545529.5274292859,545178.3591721486,545303.3501271427,TASK1
2026-05-26T10:00:16.473+00:00,767,51980,212207.81948659653,206182.03505063476,544517.0604606939,544572.4480834542,204691.19604721022,545530.8685339533,545179.7002768159,545304.9594527435,TASK1
2026-05-26T10:00:16.473+00:00,767,51981,212209.69703313077,206186.59480650365,544518.9380072282,544574.3256299885,204690.19021870973,545532.477859554,545181.3096024167,545306.5687783443,TASK1
2026-05-26T10:00:16.473+00:00,767,51982,212209.49586743067,206189.54523677175,544512.299539125,544567.6871618852,204688.64794834232,545525.8393914509,545174.6711343135,545299.9303102411,TASK1
2026-05-26T10:00:16.473+00:00,767,51983,212209.49586743067,206191.9592251729,544500.5648732859,544555.9524960462,204688.9161692758,545514.3729465452,545162.668247541,545288.4638653354,TASK1
2026-05-26T10:00:16.473+00:00,767,51984,212210.836972098,206193.83677170717,544494.4628470496,544549.5822488765,204690.52549487658,545508.270920309,545156.2980003712,545282.0936181657,TASK1
2026-05-26T10:00:16.473+00:00,767,51985,212212.17807676533,206196.5189810418,544496.0721726504,544551.4597954106,204691.59837861042,545510.1484668432,545158.443767839,545283.9711647,TASK1
2026-05-26T10:00:16.473+00:00,767,51986,212211.44046919828,206199.4694113099,544498.4861610516,544553.6055628783,204693.74414607813,545512.5624552444,545160.5895353067,545286.3851531012,TASK1
2026-05-26T10:00:16.473+00:00,767,51987,212209.62997789742,206202.419841578,544492.1159138818,544547.5035366421,204696.1581344793,545506.1922080746,545154.2192881369,545280.2831268648,TASK1
2026-05-26T10:00:16.473+00:00,767,51988,212208.62414939693,206205.10205091262,544480.9176899097,544536.30531267,204696.42635541278,545494.725763169,545143.0210641648,545269.0849028927,TASK1
2026-05-26T10:00:16.473+00:00,767,51989,212211.0381377981,206211.53935331578,544476.1567683407,544531.2761701675,204693.0065385111,545489.9648416,545138.2601425959,545264.3239813237,TASK1
2026-05-26T10:00:16.473+00:00,767,51990,212216.13433553392,206217.70843478543,544477.7660939415,544532.8854957683,204689.58672160943,545491.5741672008,545140.13768913,545265.665085991,TASK1
2026-05-26T10:00:16.473+00:00,767,51991,212219.35298673547,206221.19530692045,544482.3258498104,544537.7134725706,204690.92782627678,545498.5479114709,545146.8432124667,545272.6388302611,TASK1
2026-05-26T10:00:16.473+00:00,767,51992,212218.88360010192,206222.5364115878,544514.512361826,544569.8999845863,204690.92782627678,545532.6119700208,545180.6390500831,545306.4346678775,TASK1
2026-05-26T10:00:16.473+00:00,767,51993,212214.65912039985,206223.0728534547,544520.6814432957,544575.8008451224,204684.557579107,545535.2941793554,545183.3212594177,545309.3850981457,TASK1
2026-05-26T10:00:16.473+00:00,767,51994,212211.50752443165,206220.7259202869,544510.5561030575,544565.6755048842,204678.18733193725,545524.6323972503,545172.927698246,545298.991536974,TASK1
2026-05-26T10:00:16.473+00:00,767,51995,212210.76991686464,206219.7200917864,544508.4773908231,544563.5967926498,204673.96285223518,545522.5536850159,545170.5807650782,545296.9128247396,TASK1
2026-05-26T10:00:16.473+00:00,767,51996,212210.56875116454,206219.25070515284,544506.1304576553,544561.5180804156,204673.7616865351,545520.2067518481,545168.5020528438,545294.8341125052,TASK1
2026-05-26T10:00:16.473+00:00,767,51997,212210.56875116454,206217.44021385198,544497.3462220844,544552.7338448446,204673.2922999015,545511.4225162772,545159.7178172729,545286.0498769343,TASK1
2026-05-26T10:00:16.473+00:00,767,51998,212210.836972098,206218.51309758582,544485.0751143784,544540.1945162051,204667.9949364656,545499.4196295047,545147.7149305004,545274.0469901618,TASK1
2026-05-26T10:00:16.473+00:00,767,51999,212212.98273956572,206223.34107438815,544477.6319834747,544533.019606235,204660.551805562,545491.976498601,545140.0035786633,545266.3356383247,TASK1
2026-05-26T10:00:16.473+00:00,767,52000,212212.98273956572,206231.11948145862,544477.6319834747,544532.8184405349,204655.25444212608,545491.5071119674,545139.8024129632,545266.1344726246,TASK1
2026-05-26T10:00:16.473+00:00,767,52001,212214.79323086658,206243.18942346447,544480.7165242096,544536.50647837,204654.11450315887,545494.725763169,545143.5575060317,545268.8837371926,TASK1
2026-05-26T10:00:16.473+00:00,767,52002,212212.98273956572,206250.16316773454,544472.7369514391,544528.5269055995,204652.03579092454,545486.2097485316,545135.0414913943,545260.3677225552,TASK1
2026-05-26T10:00:16.473+00:00,767,52003,212209.83114359752,206252.84537706917,544460.465843733,544516.2557978935,204648.34775308942,545474.2068617591,545123.0386046218,545248.3648357827,TASK1
2026-05-26T10:00:16.473+00:00,767,52004,212209.83114359752,206255.25936547035,544454.6320384303,544510.4219925907,204647.87836645584,545468.6412773897,545117.4730202524,545242.7992514133,TASK1
2026-05-26T10:00:16.473+00:00,767,52005,212214.12267853293,206261.42844694,544455.1684802972,544511.226655391,204654.31566885897,545469.1777192566,545118.2776830528,545243.6039142137,TASK1
2026-05-26T10:00:16.473+00:00,767,52006,212218.14599253488,206263.0377725408,544484.6727829782,544540.7309580721,204660.48475032864,545505.1193243407,545153.9510672034,545279.2772983643,TASK1
2026-05-26T10:00:16.473+00:00,767,52007,212214.99439656668,206259.8861765726,544685.3020412091,544741.0919953694,204652.23695662463,545712.1858849747,545360.4811859705,545486.0756380649,TASK1
2026-05-26T10:00:16.473+00:00,767,52008,212201.65040512686,206249.22439446743,544767.9140887158,544823.4358219429,204627.8959069128,545783.5326532761,545431.8279542718,545557.4224063662,TASK1
2026-05-26T10:00:16.473+00:00,767,52009,212184.01487875162,206231.32064715872,544735.7946319336,544791.584586094,204601.1408687998,545750.6085336934,545398.6356137557,545524.2300658501,TASK1
2026-05-26T10:00:16.473+00:00,767,52010,212169.06156171105,206213.14867891654,544717.6226636914,544773.9490597188,204579.21380748914,545732.7047863847,545380.731866447,545506.3263185413,TASK1
2026-05-26T10:00:16.473+00:00,767,52011,212151.69425626926,206195.24493160786,544706.6926606528,544763.0190566801,204563.72404858161,545721.7747833461,545369.8018634083,545495.3963155027,TASK1
2026-05-26T10:00:16.473+00:00,767,52012,212137.2773810956,206179.75517270033,544691.4711226787,544747.7975187061,204551.1847199422,545706.553245372,545354.8485463677,545480.4429984621,TASK1
2026-05-26T10:00:16.473+00:00,767,52013,212128.76136645811,206170.70271619593,544673.0309335031,544729.6255504639,204537.5725075689,545687.8448352629,545336.6765781256,545462.27103022,TASK1
2026-05-26T10:00:16.473+00:00,767,52014,212124.2686658226,206164.33246902615,544663.1738141982,544719.7684311591,204527.17894639718,545677.9877159582,545326.8194588207,545452.1456899816,TASK1
2026-05-26T10:00:16.473+00:00,767,52015,212120.58062798748,206159.30332652372,544662.7044275647,544719.0308235921,204518.66293175973,545676.9818874577,545326.0818512538,545451.4080824147,TASK1
2026-05-26T10:00:16.473+00:00,767,52016,212117.42903201928,206155.88350962204,544661.1621571973,544717.4885532247,204512.02446365647,545675.7078380237,545324.8078018198,545450.1340329807,TASK1
2026-05-26T10:00:16.473+00:00,767,52017,212111.32700578298,206147.0992740511,544651.3050378925,544707.8996548534,204506.72710022057,545666.1189396523,545315.2189034484,545440.0086927424,TASK1
2026-05-26T10:00:16.473+00:00,767,52018,212103.88387487936,206136.43749194592,544639.0339301865,544695.8967680809,204500.35685305082,545653.8478319463,545303.2160166759,545428.0058059699,TASK1
2026-05-26T10:00:16.473+00:00,767,52019,212098.31829050998,206128.1896982419,544632.1272411499,544688.7218581106,204500.35685305082,545646.6729219762,545295.7728857724,545420.8308959998,TASK1
2026-05-26T10:00:16.473+00:00,767,52020,212097.04424107604,206124.76988134027,544631.6578545163,544687.9842505436,204504.9166089197,545645.9353144092,545294.7670572719,545419.8250674993,TASK1
2026-05-26T10:00:16.473+00:00,767,52021,212098.11712480988,206125.03810227374,544632.7307382502,544689.3253552109,204508.13526012126,545647.54464001,545296.3763828727,545421.4343931001,TASK1
2026-05-26T10:00:16.473+00:00,767,52022,212100.2628922776,206125.03810227374,544630.9202469493,544687.2466429767,204503.3743385523,545646.0023696426,545294.5658915718,545419.6239017992,TASK1
2026-05-26T10:00:16.473+00:00,767,52023,212102.4086597453,206124.3004947067,544619.9902439106,544676.0484190045,204486.8116959109,545634.8041456705,545283.6358885331,545408.4256778271,TASK1
2026-05-26T10:00:16.473+00:00,767,52024,212105.09086907996,206127.51914590827,544612.2788920735,544668.3370671674,204470.2490532695,545627.0927938333,545275.924536696,545400.9825469234,TASK1
2026-05-26T10:00:16.473+00:00,767,52025,212110.72350868268,206133.68822737792,544611.273063573,544667.5994596004,204461.19659676513,545626.3551862664,545274.9187081956,545400.2449393565,TASK1
2026-05-26T10:00:16.473+00:00,767,52026,212115.8197064185,206138.2479832468,544611.071897873,544667.1300729668,204454.82634959536,545625.8857996328,545274.7175424955,545399.5073317895,TASK1
2026-05-26T10:00:16.873+00:00,768,52027,212117.1608110858,206138.0468175467,544603.6287669693,544659.6869420633,204447.38321869174,545618.1744477957,545267.2744115918,545392.3324218193,TASK1
2026-05-26T10:00:16.873+00:00,768,52028,212118.70308145322,206136.23632624582,544592.3634877638,544648.1534419243,204441.88468955574,545607.0432790569,545255.6068009862,545381.3353635473,TASK1
2026-05-26T10:00:16.873+00:00,768,52029,212121.65351172132,206135.76693961228,544586.2614615276,544641.7831947545,204437.12376798675,545600.6730318872,545249.2365538164,545374.9651163775,TASK1
2026-05-26T10:00:16.873+00:00,768,52030,212129.4319187918,206136.03516054573,544587.066124328,544642.3196366215,204439.26953545446,545601.2094737542,545249.7729956834,545375.5015582445,TASK1
2026-05-26T10:00:16.873+00:00,768,52031,212137.21032586222,206138.98559081383,544586.328516761,544641.313808121,204442.48818665603,545600.2036452537,545248.7671671829,545374.495729744,TASK1
2026-05-26T10:00:16.873+00:00,768,52032,212143.11118639843,206138.78442511373,544578.3489439904,544633.6024562839,204440.94591628862,545591.9558515496,545241.0558153457,545366.7843779068,TASK1
2026-05-26T10:00:16.873+00:00,768,52033,212149.28026786807,206135.0963872786,544566.3460572179,544621.331348578,204436.18499471963,545579.9529647771,545228.7847076398,545354.7814911343,TASK1
2026-05-26T10:00:16.873+00:00,768,52034,212155.44934933775,206132.21301224388,544558.6347053808,544613.8882176743,204435.4473871526,545572.5098338735,545221.3415767362,545347.6065811642,TASK1
2026-05-26T10:00:16.873+00:00,768,52035,212162.15487267435,206129.5978581426,544558.4335396807,544613.6870519742,204437.32493368685,545572.04044724,545221.3415767362,545347.1371945307,TASK1
2026-05-26T10:00:16.873+00:00,768,52036,212168.323954144,206127.78736684172,544572.9174700878,544628.1709823812,204437.8613755538,545591.0841335158,545240.1170420786,545366.1808808065,TASK1
2026-05-26T10:00:16.873+00:00,768,52037,212168.86039601095,206124.0993290066,544684.7655993421,544739.4826697687,204430.68646558363,545707.4920186391,545356.5249272019,545482.3205449963,TASK1
2026-05-26T10:00:16.873+00:00,768,52038,212166.24524190967,206116.92441903646,544736.2640185672,544790.9810889937,204413.5873810753,545750.9438098603,545399.976718423,545525.504115284,TASK1
2026-05-26T10:00:16.873+00:00,768,52039,212157.72922727218,206107.06729973166,544715.4098409903,544770.3951323504,204398.90228496818,545729.0167485495,545378.3178780458,545504.1134958402,TASK1
2026-05-26T10:00:16.873+00:00,768,52040,212148.67677076778,206094.7961920257,544706.0891635525,544761.0744549125,204387.16761912915,545719.6960711117,545368.9972006079,545494.7928184024,TASK1
2026-05-26T10:00:16.873+00:00,768,52041,212141.7700817311,206081.4522005859,544699.7189163826,544754.7042077427,204380.26093009245,545713.5940448754,545362.6269534382,545488.6907921662,TASK1
2026-05-26T10:00:16.873+00:00,768,52042,212134.05872989402,206069.44931381338,544686.9113668099,544741.6284372364,204373.62246198923,545700.5182743691,545349.2829619984,545475.6150216598,TASK1
2026-05-26T10:00:16.873+00:00,768,52043,212124.20161058923,206058.7875317082,544670.3487241684,544725.3340155284,204363.76534268443,545683.9556317277,545332.4520984235,545459.0523790184,TASK1
2026-05-26T10:00:16.873+00:00,768,52044,212114.6127122179,206050.00329613726,544660.759825797,544715.7451171571,204355.7857699139,545674.3667333564,545322.8632000522,545449.4634806471,TASK1
2026-05-26T10:00:16.873+00:00,768,52045,212110.1200115824,206043.36482803404,544659.7539972966,544714.4710677232,204354.2434995465,545673.0926839224,545321.8573715517,545448.1894312131,TASK1
2026-05-26T10:00:16.873+00:00,768,52046,212108.84596214842,206040.74967393276,544659.5528315965,544714.2699020231,204353.237671046,545672.8915182223,545321.3879849181,545447.7200445795,TASK1
2026-05-26T10:00:16.873+00:00,768,52047,212105.9625871137,206036.52519423072,544649.9639332251,544705.2174455187,204350.8907378782,545663.5708407845,545312.0673074803,545438.1311462082,TASK1
2026-05-26T10:00:16.873+00:00,768,52048,212101.73810741166,206030.69138892787,544634.742395251,544689.7276866111,204349.34846751078,545648.0810818769,545296.8457695062,545422.9096082342,TASK1
2026-05-26T10:00:16.873+00:00,768,52049,212098.0500695765,206025.9304673589,544626.7628224805,544681.7481138406,204351.76245591193,545639.8332881728,545288.5979758023,545414.3935935966,TASK1
2026-05-26T10:00:16.873+00:00,768,52050,212095.43491547526,206023.04709232415,544627.8357062144,544683.089218508,204352.56711871232,545640.9061719067,545289.9390804695,545415.734698264,TASK1
2026-05-26T10:00:16.873+00:00,768,52051,212092.81976137398,206020.4319382229,544627.6345405143,544682.8880528079,204351.0248483449,545641.1743928402,545290.2073014029,545416.0029191974,TASK1
2026-05-26T10:00:16.873+00:00,768,52052,212089.39994447233,206017.01212132123,544620.4596305442,544675.7131428377,204349.75079891097,545633.7312619366,545283.0323914328,545408.2915673604,TASK1
2026-05-26T10:00:16.873+00:00,768,52053,212086.51656943758,206011.44653695187,544608.1885228382,544663.7102560652,204347.1356448097,545620.6554914302,545270.2248418599,545395.215796854,TASK1
2026-05-26T10:00:16.873+00:00,768,52054,212084.7060781367,206006.95383631633,544599.4042872672,544654.9260204943,204344.25226977497,545612.1394767928,545261.7088272225,545386.6997822166,TASK1
2026-05-26T10:00:16.873+00:00,768,52055,212083.70024963623,206003.53401941468,544600.4771710011,544655.7306832946,204342.70999940755,545612.9441395932,545262.5134900229,545387.504445017,TASK1
2026-05-26T10:00:16.873+00:00,768,52056,212083.23086300265,206000.114202513,544600.276005301,544655.5295175945,204344.85576687526,545612.7429738931,545262.3123243228,545387.3032793169,TASK1
2026-05-26T10:00:16.873+00:00,768,52057,212081.15215076832,205998.03549027868,544590.9553278632,544646.4770610902,204347.5379762099,545603.9587383221,545253.2598678183,545378.2508228124,TASK1
2026-05-26T10:00:16.873+00:00,768,52058,212079.07343853396,205998.5719321456,544578.1477782903,544633.6695115173,204347.3368105098,545591.1511887492,545240.7205391789,545365.711494173,TASK1
2026-05-26T10:00:16.873+00:00,768,52059,212083.36497346938,206003.1316880145,544570.2352607531,544625.8911044468,204350.42135124461,545584.1774444792,545233.5456292088,545359.0059708364,TASK1
2026-05-26T10:00:16.873+00:00,768,52060,212088.19295027174,206007.15500201643,544569.4976531861,544625.1534968797,204350.6895721781,545583.7080578456,545233.0762425752,545358.0001423359,TASK1
2026-05-26T10:00:16.873+00:00,768,52061,212094.63025267486,206010.10543228453,544569.0282665525,544624.6841102462,204352.0306768454,545583.2386712121,545232.3386350082,545357.5307557024,TASK1
2026-05-26T10:00:16.873+00:00,768,52062,212101.06755507799,206009.90426658443,544560.5122519151,544616.1680956087,204354.1764443131,545574.7226565746,545223.8226203708,545349.0147410649,TASK1
2026-05-26T10:00:16.873+00:00,768,52063,212106.43197374727,206007.28911248318,544548.5093651426,544604.1652088362,204352.09773207878,545562.7197698021,545211.8197335983,545337.0118542924,TASK1
2026-05-26T10:00:16.873+00:00,768,52064,212112.60105521692,206008.09377528357,544541.3344551724,544596.9902988661,204350.01901984442,545555.5448598319,545204.9130445615,545330.1051652557,TASK1
2026-05-26T10:00:16.873+00:00,768,52065,212120.37946228738,206011.31242648512,544541.8708970393,544597.5267407331,204352.16478731213,545556.0813016988,545205.4494864284,545330.6416071226,TASK1
2026-05-26T10:00:16.873+00:00,768,52066,212126.54854375703,206014.79929862014,544544.8213273074,544600.2089500676,204354.84699664678,545560.9092785012,545210.2774632308,545335.7378048585,TASK1
2026-05-26T10:00:16.873+00:00,768,52067,212128.15786935782,206015.06751955362,544572.984525321,544628.6403690148,204355.3834385137,545591.7546858495,545241.3910915126,545366.5832122067,TASK1
2026-05-26T10:00:16.873+00:00,768,52068,212127.68848272425,206009.50193518423,544585.5909091939,544641.2467528876,204356.1881013141,545600.0695347869,545249.9741613835,545374.6298402107,TASK1
2026-05-26T10:00:16.873+00:00,768,52069,212127.2190960907,206002.59524614757,544574.3926852217,544630.0485289155,204357.79742691488,545587.798427081,545237.971274611,545362.8951743717,TASK1
2026-05-26T10:00:16.873+00:00,768,52070,212125.94504665674,206000.24831297976,544571.2410892536,544626.6287120138,204362.0889618503,545584.6468311128,545234.5514577093,545360.0117993369,TASK1
2026-05-26T10:00:16.873+00:00,768,52071,212123.59811348893,206000.5165339132,544568.6259351523,544624.0135579125,204365.8440549188,545582.0316770115,545231.936303608,545357.1284243022,TASK1
2026-05-26T10:00:16.873+00:00,768,52072,212119.9100756538,206002.9305223144,544558.2323739806,544614.1564386077,204366.3804967857,545572.1745577067,545221.8109633698,545346.7348631305,TASK1
2026-05-26T10:00:16.873+00:00,768,52073,212116.49025875214,206002.7293566143,544544.6201616073,544600.8124471679,204364.8382264183,545558.5623453334,545207.930530063,545333.3908716906,TASK1
2026-05-26T10:00:16.873+00:00,768,52074,212114.14332558433,206000.38242344648,544537.4452516371,544592.5646534639,204365.10644735175,545550.8509934964,545200.219178226,545325.41129892,TASK1
2026-05-26T10:00:16.873+00:00,768,52075,212116.5573139855,205999.376594946,544537.7134725706,544592.5646534639,204369.12976135372,545551.1192144298,545200.4873991593,545325.6795198536,TASK1
2026-05-26T10:00:16.873+00:00,768,52076,212119.5077442536,205998.63898737897,544537.5123068705,544592.5646534639,204370.7390869545,545550.9180487297,545200.2862334593,545325.4783541535,TASK1
2026-05-26T10:00:16.873+00:00,768,52077,212120.312407054,205995.48739141077,544529.5327341,544584.31685976,204372.34841255526,545542.6702550257,545192.0384397553,545317.2305604494,TASK1
2026-05-26T10:00:16.873+00:00,768,52078,212118.50191575312,205993.14045824297,544516.7251845271,544571.5093101871,204373.6895172226,545530.1309263862,545179.4991111158,545304.4230108765,TASK1
2026-05-26T10:00:16.873+00:00,768,52079,212117.22786631918,205992.6710716094,544511.4278210911,544566.4801676846,204373.22013058903,545524.5653420169,545174.20174768,545299.1256474407,TASK1
2026-05-26T10:00:16.873+00:00,768,52080,212118.9713023867,205997.83432457858,544512.5677600584,544568.6929903857,204378.11516262474,545526.7111094845,545175.6099075807,545301.0702492082,TASK1
2026-05-26T10:00:16.873+00:00,768,52081,212121.65351172132,206002.39408044747,544514.9817484596,544571.1069787869,204383.74780222747,545529.9297606861,545178.8285587822,545303.7524585429,TASK1
2026-05-26T10:00:16.873+00:00,768,52082,212122.7263954552,206002.9305223144,544513.9759199591,544570.1011502864,204388.0393371629,545528.6557112522,545177.8227302817,545303.0148509758,TASK1
2026-05-26T10:00:16.873+00:00,768,52083,212120.1112413539,206001.38825194698,544502.5094750535,544558.3664844474,204390.45332556407,545516.3846035462,545165.8198435092,545291.2801851368,TASK1
2026-05-26T10:00:16.873+00:00,768,52084,212116.4232035188,206001.9246938139,544494.7981232165,544550.6551326102,204389.98393893053,545508.9414726426,545158.1084916721,545283.5688332998,TASK1
2026-05-26T10:00:16.873+00:00,768,52085,212113.8080494175,206005.14334501547,544495.6027860169,544551.1915744771,204388.17344762964,545510.28257731,545158.9131544725,545284.3734961002,TASK1
2026-05-26T10:00:16.873+00:00,768,52086,212110.38823251586,206006.4844496828,544496.6756697507,544551.9962372775,204387.43584006262,545511.0872401104,545159.7178172729,545284.9099379671,TASK1
2026-05-26T10:00:16.873+00:00,768,52087,212104.82264814648,206006.4844496828,544488.9643179136,544544.553106374,204386.43001156213,545503.3758882732,545152.0064654358,545277.19858613,TASK1
2026-05-26T10:00:16.873+00:00,768,52088,212098.98884284365,206004.6739583819,544476.9614311411,544532.5502196015,204388.30755809636,545491.6412224342,545140.2717995968,545265.4639202909,TASK1
2026-05-26T10:00:16.873+00:00,768,52089,212096.64190967585,206000.44947867986,544470.5911839714,544525.9117514982,204389.64866276368,545485.002754331,545133.901552427,545258.8254521877,TASK1
2026-05-26T10:00:16.873+00:00,768,52090,212095.63608117535,205997.0296617782,544470.5911839714,544525.9117514982,204396.62240703375,545484.8015886309,545133.7003867269,545258.6242864876,TASK1
2026-05-26T10:00:16.873+00:00,768,52091,212097.24540677614,205994.14628674346,544470.8594049048,544526.1799724317,204404.66903503766,545485.3380304978,545134.2368285939,545259.428949288,TASK1
2026-05-26T10:00:16.873+00:00,768,52092,212096.5077992091,205991.2629117087,544464.489157735,544519.5415043285,204408.6923490396,545479.2360042615,545127.8665814241,545253.0587021182,TASK1
2026-05-26T10:00:16.873+00:00,768,52093,212093.62442417437,205988.9159785409,544452.754491896,544507.538617556,204410.56989557386,545467.233117489,545115.8636946516,545240.7875944123,TASK1
2026-05-26T10:00:16.873+00:00,768,52094,212092.35037474043,205987.10548724004,544445.8478028593,544501.1683703862,204412.4474421081,545460.8628703193,545109.4934474819,545234.1491263091,TASK1
2026-05-26T10:00:16.873+00:00,768,52095,212092.35037474043,205984.75855407224,544447.45712846,544502.777695987,204416.2025351766,545462.4721959201,545111.1027730826,545235.7584519099,TASK1
2026-05-26T10:00:16.873+00:00,768,52096,212090.53988343955,205984.0209465052,544468.3783612703,544523.6989287972,204422.1033957128,545488.2214055326,545136.8519826952,545261.7758824559,TASK1
2026-05-26T10:00:16.873+00:00,768,52097,212084.97429907016,205981.94223427086,544601.9523861352,544657.2729536621,204420.82934627883,545625.0140815991,545273.9128796951,545398.8367794558,TASK1
2026-05-26T10:00:16.873+00:00,768,52098,212073.23963323113,205974.23088243377,544642.7219680217,544697.7743146151,204406.68069203862,545658.0052564151,545307.1722754446,545431.8279542718,TASK1
2026-05-26T10:00:16.873+00:00,768,52099,212057.48165339013,205964.64198406244,544617.308034576,544672.3603811694,204385.55829352836,545632.0548811024,545280.9536791985,545405.8775789592,TASK1
2026-05-26T10:00:16.873+00:00,768,52100,212047.62453408536,205957.4670740923,544605.5733687369,544660.6257153304,204368.72742995352,545620.5884361969,545269.2190133594,545394.1429131202,TASK1
2026-05-26T10:00:16.873+00:00,768,52101,212041.2542869156,205947.6099547875,544598.6666797003,544653.7190262937,204358.87031064872,545613.6817471602,545262.3123243228,545387.2362240835,TASK1
2026-05-26T10:00:16.873+00:00,768,52102,212034.88403974578,205937.2163936158,544586.6637929277,544641.7161395212,204349.54963321087,545601.6788603876,545250.0412166168,545375.233337311,TASK1
2026-05-26T10:00:16.873+00:00,768,52103,212027.17268790872,205926.28639057715,544571.7104758872,544626.7628224805,204339.15607203916,545586.9937642806,545235.3561205097,545360.2800202704,TASK1
2026-05-26T10:00:16.873+00:00,768,52104,212023.4846500736,205914.28350380465,544562.9262403162,544617.9785869096,204331.1764992686,545577.9413077761,545226.0354430717,545350.9593428326,TASK1
2026-05-26T10:00:16.873+00:00,768,52105,212024.35636810734,205907.51092523467,544564.2002897501,544619.7890782105,204329.70128413456,545577.8742525427,545226.7730506388,545352.2333922664,TASK1
2026-05-26T10:00:16.873+00:00,768,52106,212018.790783738,205901.67711993185,544563.4626821831,544618.78324971,204325.74502536596,545577.1366449757,545225.7672221384,545351.4957846995,TASK1
2026-05-26T10:00:16.873+00:00,768,52107,212013.49342030208,205894.77043089515,544555.7513303461,544611.071897873,204318.83833632927,545569.4252931387,545218.0558703012,545343.7844328623,TASK1
2026-05-26T10:00:16.873+00:00,768,52108,212009.80538246693,205887.0590790581,544543.7484435736,544599.6054529673,204312.46808915952,545557.9588482331,545206.5894253957,545332.0497670233,TASK1
2026-05-26T10:00:16.873+00:00,768,52109,212007.19022836568,205882.02993655563,544537.9146382707,544593.7716476645,204310.65759785863,545551.8568219969,545200.4873991593,545326.2159617204,TASK1
2026-05-26T10:00:16.873+00:00,768,52110,212005.64795799827,205878.61011965398,544538.9875220046,544594.5763104649,204309.91999029162,545552.9297057306,545201.5602828932,545327.0206245208,TASK1
2026-05-26T10:00:16.873+00:00,768,52111,212004.3739085643,205875.72674461923,544551.8621268108,544607.7191362047,204308.3777199242,545569.8276245389,545218.189980768,545343.9185433291,TASK1
2026-05-26T10:00:16.873+00:00,768,52112,211998.54010326148,205870.6976021168,544638.2292673861,544693.8180558465,204303.0803564883,545659.9498581827,545308.0439934783,545433.7725560394,TASK1
2026-05-26T10:00:16.873+00:00,768,52113,211987.87832115628,205865.1320177474,544672.5615468695,544727.8821143964,204290.54102784884,545687.308393396,545335.6707496251,545461.3993121862,TASK1
2026-05-26T10:00:16.873+00:00,768,52114,211977.48475998457,205857.6888868438,544654.6577995608,544709.9783670877,204279.6110248102,545668.5999832869,545316.962339516,545442.6909020771,TASK1
2026-05-26T10:00:16.873+00:00,768,52115,211972.18739654866,205852.3915234079,544646.9464477237,544702.2670152506,204271.89967297312,545661.1568523833,545308.9827667455,545434.7113293066,TASK1
2026-05-26T10:00:16.873+00:00,768,52116,211969.84046338085,205847.89882277237,544640.8444214874,544695.8967680809,204266.87053047068,545654.7866052135,545302.3442986422,545428.0728612033,TASK1
2026-05-26T10:00:16.873+00:00,768,52117,211966.15242554573,205839.38280813492,544629.3779765818,544684.6985441088,204261.3049461013,545643.8566021748,545291.4142956035,545417.1428581646,TASK1
2026-05-26T10:00:16.873+00:00,768,52118,211962.4643877106,205835.15832843285,544614.6928804747,544670.2816689351,204254.93469893155,545629.1715060677,545276.7291994964,545402.4577620575,TASK1
2026-05-26T10:00:16.873+00:00,768,52119,211962.26322201052,205834.42072086583,544605.6404239703,544660.6927705638,204250.71021922948,545619.5826076964,545266.8720801916,545393.1370846197,TASK1
2026-05-26T10:00:16.873+00:00,768,52120,211961.79383537694,205833.68311329882,544605.4392582702,544660.4916048637,204251.78310296335,545619.1132210628,545266.6709144915,545392.9359189196,TASK1
2026-05-26T10:00:16.873+00:00,768,52121,211961.79383537694,205831.336180131,544604.7016507032,544659.7539972966,204251.78310296335,545618.6438344292,545266.201527858,545392.466532286,TASK1
2026-05-26T10:00:16.873+00:00,768,52122,211960.78800687645,205829.25746789665,544596.1856360657,544650.9697617256,204250.5090535294,545610.3960407253,545258.2219550874,545383.9505176486,TASK1
2026-05-26T10:00:16.873+00:00,768,52123,211960.3186202429,205828.7880812631,544584.1827492932,544639.2350958866,204247.62567849466,545598.3931539528,545245.9508473815,545371.6794099426,TASK1
2026-05-26T10:00:16.873+00:00,768,52124,211963.53727144445,205830.66562779734,544578.6171649238,544633.4012905838,204245.27874532685,545592.2911277164,545240.1170420786,545365.5773837062,TASK1
2026-05-26T10:00:16.873+00:00,768,52125,211965.68303891216,205833.07961619852,544578.1477782903,544633.2001248837,204248.49739652843,545592.0899620163,545239.9158763785,545365.5773837062,TASK1
2026-05-26T10:00:16.873+00:00,768,52126,211967.02414357947,205837.63937206738,544578.4159992237,544633.2001248837,204256.54402453234,545592.0899620163,545240.184097312,545365.5773837062,TASK1
2026-05-26T10:00:17.179+00:00,769,52127,211968.90169011374,205842.46734886974,544571.7775311205,544627.0980986474,204261.64022226815,545585.4514939131,545233.8138501423,545359.47535747,TASK1
2026-05-26T10:00:17.179+00:00,769,52128,211968.16408254672,205845.14955820437,544558.4335396807,544614.2905490745,204267.54108280435,545572.1075024733,545220.4698587024,545346.3995869636,TASK1
2026-05-26T10:00:17.179+00:00,769,52129,211967.69469591315,205846.75888380516,544550.7221878436,544606.5791972374,204274.24660614092,545564.6643715696,545212.7585068654,545338.95645606,TASK1
2026-05-26T10:00:17.179+00:00,769,52130,211967.96291684662,205848.09998847247,544551.2586297105,544607.1156391044,204283.09789694523,545564.9325925031,545213.2949487322,545339.2246769934,TASK1
2026-05-26T10:00:17.179+00:00,769,52131,211969.57224244738,205851.31863967405,544553.1361762448,544608.4567437717,204289.2669784149,545567.0783599708,545215.4407161999,545341.1022235277,TASK1
2026-05-26T10:00:17.179+00:00,769,52132,211974.13199831627,205857.42066591035,544546.2294872081,544601.8853309018,204290.80924878232,545560.6410575678,545209.3386899637,545334.8660868247,TASK1
2026-05-26T10:00:17.179+00:00,769,52133,211976.54598671745,205861.71220084577,544533.9583795022,544590.1506650628,204291.34569064924,545548.3699498618,545197.0675822577,545322.5949791187,TASK1
2026-05-26T10:00:17.179+00:00,769,52134,211980.5693007194,205865.46729391426,544527.5881323324,544583.780417893,204296.71010931852,545541.7314817585,545190.6973350879,545316.2247319489,TASK1
2026-05-26T10:00:17.179+00:00,769,52135,211985.12905658828,205866.80839858158,544528.9292369997,544585.3897434938,204302.8791907882,545543.6090282928,545192.0384397553,545317.8340575497,TASK1
2026-05-26T10:00:17.179+00:00,769,52136,211989.68881245717,205871.36815445047,544528.9292369997,544585.6579644273,204308.24360945745,545543.4078625927,545192.0384397553,545317.8340575497,TASK1
2026-05-26T10:00:17.179+00:00,769,52137,211993.9803473926,205872.4410381843,544520.1450014288,544576.8737288563,204309.58471412477,545534.6236270218,545183.7906460513,545309.3180429123,TASK1
2026-05-26T10:00:17.179+00:00,769,52138,211996.39433579377,205871.7034306173,544508.6785565232,544565.1390630173,204310.38937692516,545522.8889611827,545171.7877592788,545297.5833770733,TASK1
2026-05-26T10:00:17.179+00:00,769,52139,211998.80832419492,205875.72674461923,544501.503646553,544557.9641530472,204314.41269092713,545515.4458302791,545164.3446283751,545290.1402461696,TASK1
2026-05-26T10:00:17.179+00:00,769,52140,212004.44096379768,205885.38269822393,544501.3024808529,544557.9641530472,204324.33686546527,545515.7140512125,545164.3446283751,545290.1402461696,TASK1
2026-05-26T10:00:17.179+00:00,769,52141,212008.7324987331,205893.42932622784,544502.9118064537,544559.3052577145,204334.5292609369,545519.2009233476,545167.5632795767,545293.3588973712,TASK1
2026-05-26T10:00:17.179+00:00,769,52142,212006.9220074322,205896.91619836286,544523.296597397,544579.6900486577,204340.69834240657,545540.9268189581,545189.5573961207,545315.6212348486,TASK1
2026-05-26T10:00:17.179+00:00,769,52143,212003.2339695971,205895.91036986237,544529.1974579331,544585.8591301274,204343.91699360812,545543.8772492262,545192.5078263888,545318.5716651168,TASK1
2026-05-26T10:00:17.179+00:00,769,52144,212000.0823736289,205894.9045413619,544518.8038967614,544575.4655689556,204343.1793860411,545533.4836880545,545182.1142652171,545307.6416620781,TASK1
2026-05-26T10:00:17.179+00:00,769,52145,212000.0823736289,205893.63049192794,544516.7251845271,544573.1186357879,204338.15024353866,545531.1367548867,545179.7673320493,545305.2947289103,TASK1
2026-05-26T10:00:17.179+00:00,769,52146,212002.76458296351,205891.82000062705,544515.1829141597,544571.5763654204,204337.41263597165,545529.3262635858,545178.2250616819,545303.7524585429,TASK1
2026-05-26T10:00:17.179+00:00,769,52147,212006.25145509854,205891.3506139935,544506.6668995222,544563.0603507829,204339.55840343935,545520.8102489484,545169.7090470444,545295.2364439054,TASK1
2026-05-26T10:00:17.179+00:00,769,52148,212002.56341726342,205892.69171866082,544495.7368964836,544552.3985686777,204336.13858653768,545510.4166877767,545159.3154858727,545284.8428827337,TASK1
2026-05-26T10:00:17.179+00:00,769,52149,211999.41182129522,205893.22816052774,544488.0255446464,544544.6872168407,204335.93742083758,545502.973556873,545151.3359131021,545277.3997518301,TASK1
2026-05-26T10:00:17.179+00:00,769,52150,212000.75292596253,205888.46723895875,544488.0255446464,544544.2178302071,204339.96073483955,545502.7723911729,545151.134747402,545276.9303651965,TASK1
2026-05-26T10:00:17.179+00:00,769,52151,212002.6304724968,205883.7063173898,544488.5619865134,544545.290713941,204340.228955773,545503.3088330398,545151.671189269,545277.4668070634,TASK1
2026-05-26T10:00:17.179+00:00,769,52152,212003.70335623063,205880.28650048812,544481.1188556098,544537.8475830373,204339.75956913945,545495.5974812028,545144.2280583654,545270.0236761598,TASK1
2026-05-26T10:00:17.179+00:00,769,52153,212005.31268183142,205876.33024171952,544470.4570735046,544526.9175799987,204336.60797317125,545484.9356990976,545133.2980553267,545259.3618940547,TASK1
2026-05-26T10:00:17.179+00:00,769,52154,212008.26311209952,205873.98330855172,544464.8914891352,544521.0837746959,204336.60797317125,545479.3701147282,545127.7324709573,545253.7963096853,TASK1
2026-05-26T10:00:17.179+00:00,769,52155,212008.79955396644,205875.05619228558,544465.9643728691,544522.1566584298,204341.9723918405,545480.4429984621,545128.5371337577,545254.6009724857,TASK1
2026-05-26T10:00:17.179+00:00,769,52156,212010.40887956723,205875.32441321903,544468.6465822037,544524.570646831,204347.3368105098,545483.3934287302,545131.2193430924,545257.8196236872,TASK1
2026-05-26T10:00:17.179+00:00,769,52157,212010.6771005007,205872.97748005122,544466.8360909028,544522.7601555301,204348.14147331018,545482.1193792962,545129.677072725,545256.2773533198,TASK1
2026-05-26T10:00:17.179+00:00,769,52158,212009.40305106674,205873.78214285162,544454.8332041303,544510.7572687576,204348.6779151771,545469.5800506568,545117.1377440855,545243.4698037469,TASK1
2026-05-26T10:00:17.179+00:00,769,52159,212009.93949293368,205874.31858471854,544447.1218522933,544503.3141378539,204348.20852854353,545461.8686988198,545109.6946131819,545235.7584519099,TASK1
2026-05-26T10:00:17.179+00:00,769,52160,212016.91323720373,205870.36232594997,544448.4629569605,544504.3870215878,204346.66625817612,545463.209803487,545111.0357178493,545236.8313356437,TASK1
2026-05-26T10:00:17.179+00:00,769,52161,212022.81409773993,205866.9425090483,544449.804061628,544505.7281262551,204349.0802465773,545464.8191290878,545112.108601583,545238.172440311,TASK1
2026-05-26T10:00:17.179+00:00,769,52162,212023.35053960685,205865.4002386809,544441.8244888574,544498.016774418,204349.0802465773,545456.8395563173,545104.1290288125,545230.1928675405,TASK1
2026-05-26T10:00:17.179+00:00,769,52163,212025.16103090774,205864.66263111387,544433.1073085198,544488.9643179136,204348.14147331018,545447.5859341128,545095.9482903419,545221.3415767362,TASK1
2026-05-26T10:00:17.179+00:00,769,52164,212026.2339146416,205862.5839188795,544428.6146078843,544484.4716172781,204344.98987734198,545442.8250125438,545091.1873687729,545216.3124342337,TASK1
2026-05-26T10:00:17.179+00:00,769,52165,212029.1843449097,205865.26612821416,544429.4192706847,544485.544501012,204345.5263192089,545443.6296753442,545091.9920315733,545217.1170970341,TASK1
2026-05-26T10:00:17.179+00:00,769,52166,212033.74410077857,205869.55766314958,544429.4192706847,544485.544501012,204347.6720866766,545443.6296753442,545091.9920315733,545217.3853179676,TASK1
2026-05-26T10:00:17.179+00:00,769,52167,212038.3038566475,205871.7034306173,544421.7079188476,544477.5649282414,204347.9403076101,545435.9183235072,545084.2806797363,545209.942187064,TASK1
2026-05-26T10:00:17.179+00:00,769,52168,212040.9860659821,205873.58097715152,544409.9732530086,544465.8302624023,204344.25226977497,545423.9154367347,545072.2777929638,545198.207521225,TASK1
2026-05-26T10:00:17.179+00:00,769,52169,212042.05894971598,205885.11447729045,544404.1394477057,544460.264678033,204340.8324528733,545418.3498523652,545066.7122085944,545192.6419368556,TASK1
2026-05-26T10:00:17.179+00:00,769,52170,212043.4000543833,205905.49926823372,544404.6758895726,544460.5328989665,204341.3688947402,545418.8862942322,545066.9804295278,545192.910157789,TASK1
2026-05-26T10:00:17.179+00:00,769,52171,212044.2047171837,205922.3971870419,544422.9149130482,544478.771922442,204341.1677290401,545441.95329451,545089.7792088722,545215.7089371334,TASK1
2026-05-26T10:00:17.179+00:00,769,52172,212037.56624908047,205925.88405917695,544561.5851356488,544617.7103659762,204333.45637720305,545587.3290404474,545235.1549548096,545360.5482412039,TASK1
2026-05-26T10:00:17.179+00:00,769,52173,212022.0764901729,205913.61295147098,544641.5149738211,544697.9084250818,204317.69839736205,545658.1393668818,545305.965281244,545431.0903467048,TASK1
2026-05-26T10:00:17.179+00:00,769,52174,212002.56341726342,205898.92785536384,544618.5150287766,544674.6402591038,204301.6721965876,545633.261875303,545281.3560105987,545406.4810760595,TASK1
2026-05-26T10:00:17.179+00:00,769,52175,211987.34187928936,205887.9978523252,544603.5617117359,544659.4187211298,204291.0104144824,545618.3085582624,545266.4026935581,545391.7959799523,TASK1
2026-05-26T10:00:17.179+00:00,769,52176,211972.12034131528,205877.06784928654,544595.5821389654,544651.4391483592,204279.0075277099,545610.5972064254,545258.4231207875,545383.8164071818,TASK1
2026-05-26T10:00:17.179+00:00,769,52177,211956.09414054084,205866.67428811482,544581.4334847252,544637.5587150524,204266.19997813704,545596.1803312517,545244.2744665473,545369.9359738751,TASK1
2026-05-26T10:00:17.179+00:00,769,52178,211943.8230328349,205856.2807269431,544564.8708420838,544620.9960724111,204257.14752163264,545579.6176886103,545227.4436029724,545353.3733312336,TASK1
2026-05-26T10:00:17.179+00:00,769,52179,211936.1116809978,205850.71514257375,544555.013722779,544611.4071740397,204249.43616979555,545570.028790239,545218.1229255346,545343.7844328623,TASK1
2026-05-26T10:00:17.179+00:00,769,52180,211932.69186409612,205846.75888380516,544554.0078942785,544610.4013455393,204243.60236449272,545569.2911826719,545217.3853179676,545343.0468252953,TASK1
2026-05-26T10:00:17.179+00:00,769,52181,211930.6131518618,205840.38863663538,544552.4656239111,544609.3955170388,204238.57322199026,545568.017133238,545215.8430476001,545341.7727758614,TASK1
2026-05-26T10:00:17.179+00:00,769,52182,211928.26621869399,205831.60440106445,544544.4860511406,544600.8795024013,204233.0076376209,545559.769339534,545207.5952538962,545333.5249821574,TASK1
2026-05-26T10:00:17.179+00:00,769,52183,211924.8464017923,205825.77059576163,544534.6289318358,544591.0223830965,204226.63739045113,545549.9122202292,545197.4699136579,545323.6678628526,TASK1
2026-05-26T10:00:17.179+00:00,769,52184,211923.37118665827,205825.56943006153,544532.1478882013,544587.9378423617,204220.46830898148,545546.3582928608,545194.9888700234,545320.7844878179,TASK1
2026-05-26T10:00:17.179+00:00,769,52185,211920.21959069007,205824.29538062756,544533.4889928686,544589.5471679625,204217.0484920798,545547.4311765947,545196.0617537572,545321.8573715517,TASK1
2026-05-26T10:00:17.179+00:00,769,52186,211917.06799472187,205820.339121859,544544.2178302071,544599.7395634342,204216.3108845128,545561.1104442013,545209.7410213639,545335.2684182249,TASK1
2026-05-26T10:00:17.179+00:00,769,52187,211911.77063128597,205814.2370956227,544607.2497495711,544663.0397037315,204210.7453001434,545626.8245729,545275.4551500625,545400.7143259901,TASK1
2026-05-26T10:00:17.179+00:00,769,52188,211902.98639571504,205806.5257437856,544625.2205521131,544681.5469481405,204199.01063430437,545639.6991777061,545288.8661967356,545413.8571517298,TASK1
2026-05-26T10:00:17.179+00:00,769,52189,211893.3974973437,205800.69193848278,544611.6083397398,544667.9347357672,204190.22639873344,545625.550523466,545274.985763429,545399.976718423,TASK1
2026-05-26T10:00:17.179+00:00,769,52190,211885.9543664401,205796.73567971418,544606.310976304,544662.9055932648,204184.66081436406,545620.5213809635,545269.688399993,545394.9475759205,TASK1
2026-05-26T10:00:17.179+00:00,769,52191,211882.8027704719,205792.24297907867,544603.9640431361,544660.2904391636,204177.21768346045,545618.1744477957,545266.8050249583,545392.6006427527,TASK1
2026-05-26T10:00:17.179+00:00,769,52192,211879.6511745037,205787.75027844316,544594.1069238314,544650.7015407922,204169.77455255683,545608.5855494244,545257.4843475204,545382.743523448,TASK1
2026-05-26T10:00:17.179+00:00,769,52193,211872.744485467,205783.79401967456,544580.7629323916,544637.089328419,204164.20896818745,545594.9733370511,545243.8721351471,545369.3995320081,TASK1
2026-05-26T10:00:17.179+00:00,769,52194,211865.56957549686,205782.25174930715,544573.0515805545,544629.1097556484,204160.7891512858,545587.261985214,545236.1607833101,545361.9564011046,TASK1
2026-05-26T10:00:17.179+00:00,769,52195,211861.61331672827,205782.78819117407,544573.319801488,544629.6461975153,204158.71043905144,545587.5302061475,545236.4290042436,545362.224622038,TASK1
2026-05-26T10:00:17.179+00:00,769,52196,211858.46172076007,205786.81150517604,544573.319801488,544629.4450318152,204154.4859593494,545587.5302061475,545236.4290042436,545362.0234563379,TASK1
2026-05-26T10:00:17.179+00:00,769,52197,211852.35969452377,205790.83481917798,544565.0720077839,544621.1972381112,204144.89706097808,545579.2824124434,545227.912989606,545353.5074417004,TASK1
2026-05-26T10:00:17.179+00:00,769,52198,211845.45300548707,205796.73567971418,544553.3373419449,544609.7307932057,204138.5268138083,545567.5477466044,545216.178323767,545342.0409967948,TASK1
2026-05-26T10:00:17.179+00:00,769,52199,211840.15564205116,205808.5374007866,544545.8942110413,544602.5558832355,204133.49767130587,545560.1046157008,545209.0034137969,545334.5978658912,TASK1
2026-05-26T10:00:17.179+00:00,769,52200,211835.93116234912,205818.7297962582,544546.6988738417,544603.3605460358,204130.61429627115,545560.9092785012,545209.8080765973,545335.4025286916,TASK1
2026-05-26T10:00:17.179+00:00,769,52201,211833.04778731437,205828.3857498629,544548.3081994425,544605.2380925701,204128.80380497026,545562.7868250355,545211.953844065,545337.2800752259,TASK1
2026-05-26T10:00:17.463+00:00,770,52202,211828.82330761233,205836.96881973374,544543.0108360065,544599.9407291343,204122.43355780048,545557.2212406661,545206.656480629,545331.7144908565,TASK1
2026-05-26T10:00:17.463+00:00,770,52203,211823.52594417642,205840.45569186876,544530.2032864336,544586.8649586278,204119.55018276576,545544.4136910932,545193.5807101227,545318.9069412836,TASK1
2026-05-26T10:00:17.463+00:00,770,52204,211821.44723194206,205844.47900587073,544523.0283764635,544579.4218277242,204119.08079613218,545537.2387811231,545186.4058001526,545311.46381038,TASK1
2026-05-26T10:00:17.463+00:00,770,52205,211819.10029877425,205850.64808734038,544525.1741439312,544581.5675951919,204121.76300546684,545538.8481067239,545188.0151257534,545313.0731359808,TASK1
2026-05-26T10:00:17.463+00:00,770,52206,211815.41226093913,205855.7442850762,544526.783469532,544583.1769207927,204121.56183976674,545539.9209904576,545189.3562304206,545314.6824615815,TASK1
2026-05-26T10:00:17.463+00:00,770,52207,211810.65133937015,205858.4264944108,544517.9992339611,544574.6609061552,204118.94668566546,545531.9414176871,545181.6448785836,545306.702888811,TASK1
2026-05-26T10:00:17.463+00:00,770,52208,211807.49974340198,205864.05913401357,544505.7281262551,544562.6580193827,204114.72220596342,545519.6703099812,545169.3737708776,545294.1635601716,TASK1
2026-05-26T10:00:17.463+00:00,770,52209,211806.6280253682,205872.6422038844,544501.9730331866,544558.3664844474,204112.91171466254,545515.982272146,545164.6799045419,545289.7379147694,TASK1
2026-05-26T10:00:17.463+00:00,770,52210,211806.89624630168,205880.1523900214,544503.3141378539,544559.4393681812,204115.32570306372,545517.0551558799,545166.0210092093,545291.3472403702,TASK1
2026-05-26T10:00:17.463+00:00,770,52211,211808.237350969,205884.98036682373,544504.9234634547,544561.048693782,204119.08079613218,545518.6644814807,545167.6303348101,545293.2247869044,TASK1
2026-05-26T10:00:17.463+00:00,770,52212,211808.237350969,205889.0036808257,544498.553216285,544554.6784466122,204120.69012173297,545512.2942343109,545161.2600876404,545286.8545397347,TASK1
2026-05-26T10:00:17.463+00:00,770,52213,211805.6221968677,205889.8083436261,544488.6960969801,544544.8213273074,204121.76300546684,545502.1688940726,545151.4029683355,545276.460978563,TASK1
2026-05-26T10:00:17.463+00:00,770,52214,211806.4268596681,205890.344785493,544484.4716172781,544540.0604057384,204123.90877293455,545497.9444143706,545146.9102677,545271.700056994,TASK1
2026-05-26T10:00:17.463+00:00,770,52215,211811.7912783374,205895.44098322882,544485.2762800785,544541.1332894723,204125.51809853534,545498.749077171,545147.9831514339,545272.7729407279,TASK1
2026-05-26T10:00:17.463+00:00,770,52216,211815.00992953894,205898.92785536384,544513.9759199591,544569.5647084195,204122.63472350058,545533.3495775878,545182.5836518507,545307.3734411447,TASK1
2026-05-26T10:00:17.463+00:00,770,52217,211807.8350195688,205897.11736406296,544706.2903292526,544762.1473386463,204110.63183672808,545732.3695102179,545381.3353635473,545506.1251528412,TASK1
2026-05-26T10:00:17.463+00:00,770,52218,211794.2228071955,205884.0415935566,544784.074399957,544839.9314093508,204082.53569394778,545799.4247435838,545448.3905969132,545573.1803862072,TASK1
2026-05-26T10:00:17.463+00:00,770,52219,211774.97795521948,205863.1874159798,544752.7596059751,544808.3483944355,204057.658202369,545767.037065868,545415.734698264,545540.5244875579,TASK1
2026-05-26T10:00:17.463+00:00,770,52220,211754.66021950962,205846.62477333844,544735.9287424003,544791.5175308606,204039.48623412685,545749.9379813598,545399.1720556226,545523.6936239831,TASK1
2026-05-26T10:00:17.463+00:00,770,52221,211736.7564722009,205835.96299123325,544724.7305184281,544780.3193068885,204027.75156828781,545738.4715364542,545387.9738316505,545512.7636209445,TASK1
2026-05-26T10:00:17.463+00:00,770,52222,211720.19382955955,205823.96010446074,544708.7043176537,544764.293106114,204017.62622804957,545722.4453356797,545371.9476308761,545496.73742017,TASK1
2026-05-26T10:00:17.463+00:00,770,52223,211703.89940785163,205815.9805316902,544691.0687912785,544746.9258006723,204007.23266687786,545704.8098093044,545354.3121045008,545479.1018937948,TASK1
2026-05-26T10:00:17.463+00:00,770,52224,211691.62830014565,205811.4878310547,544680.1387882398,544736.2640185672,204002.2035243754,545694.1480271993,545343.6503223956,545468.4401116896,TASK1
2026-05-26T10:00:17.463+00:00,770,52225,211684.72161110895,205808.60445601994,544677.2554132051,544733.1124225989,204003.0081871758,545691.2646521645,545340.766947361,545465.5567366548,TASK1
2026-05-26T10:00:17.463+00:00,770,52226,211679.42424767304,205808.60445601994,544675.7131428377,544731.0337103646,204007.2997221112,545689.4541608637,545338.95645606,545464.0144662875,TASK1
2026-05-26T10:00:17.463+00:00,770,52227,211672.2493377029,205809.1408978869,544666.3924653998,544721.7130329267,204012.395919847,545680.1334834258,545329.6357786221,545454.6937888496,TASK1
2026-05-26T10:00:17.463+00:00,770,52228,211667.22019520047,205808.1350693864,544652.7802530265,544708.1008205535,204022.0518734517,545666.253050119,545315.7553453154,545440.8133555428,TASK1
2026-05-26T10:00:17.463+00:00,770,52229,211663.53215736532,205809.4761740537,544645.0689011895,544700.3894687163,204030.3667223891,545658.541698282,545308.0439934783,545432.8337827723,TASK1
2026-05-26T10:00:17.463+00:00,770,52230,211663.53215736532,205812.15838338833,544643.5266308221,544698.847198349,204038.413350393,545657.267648848,545306.7699440444,545431.2915124049,TASK1
2026-05-26T10:00:17.463+00:00,770,52231,211664.3368201657,205814.30415085604,544643.7948517555,544699.3836402158,204047.53286213076,545658.0723116484,545307.3063859113,545432.3643961387,TASK1
2026-05-26T10:00:17.463+00:00,770,52232,211664.13565446562,205817.25458112414,544641.1796976542,544696.7684861146,204054.77482733427,545655.1889366137,545304.4230108765,545429.7492420374,TASK1
2026-05-26T10:00:17.463+00:00,770,52233,211665.20853819948,205817.7910229911,544629.4450318152,544685.0338202756,204061.74857160434,545643.4542707746,545292.6883450375,545418.0145761984,TASK1
2026-05-26T10:00:17.463+00:00,770,52234,211666.5496428668,205821.81433699303,544622.0019009116,544677.8589103054,204065.50366467284,545636.0111398711,545285.2452141339,545410.8396662283,TASK1
2026-05-26T10:00:17.463+00:00,770,52235,211668.6954103345,205830.66562779734,544621.5325142781,544677.3895236718,204066.04010653976,545635.809974171,545284.7758275004,545410.3702795947,TASK1
2026-05-26T10:00:17.463+00:00,770,52236,211675.93737553802,205843.40612213686,544621.5995695114,544677.5236341385,204071.00219380882,545636.2123055712,545284.9769932005,545410.4373348281,TASK1
2026-05-26T10:00:17.463+00:00,770,52237,211679.1560267396,205851.1845292073,544611.7424502067,544667.9347357672,204073.41618221,545626.3551862664,545275.1198738957,545400.5802155233,TASK1
2026-05-26T10:00:17.463+00:00,770,52238,211678.41841917255,205855.47606414274,544599.2031215671,544655.3954071278,204074.2208450104,545613.27941576,545262.0441033893,545387.504445017,TASK1
2026-05-26T10:00:17.463+00:00,770,52239,211680.2959657068,205862.71802934626,544593.3693162643,544649.025159958,204078.5123799458,545606.9091685902,545255.942077153,545381.1341978472,TASK1
2026-05-26T10:00:17.463+00:00,770,52240,211684.8557215757,205875.86085508598,544594.9786418651,544650.6344855588,204084.413240482,545608.7867151245,545257.8196236872,545383.0117443814,TASK1
2026-05-26T10:00:17.463+00:00,770,52241,211688.34259371072,205889.54012269262,544596.051525599,544651.7073692927,204089.7776591513,545609.5913779249,545258.6242864876,545383.8164071818,TASK1
2026-05-26T10:00:17.463+00:00,770,52242,211688.14142801063,205897.58675069653,544587.8037318949,544643.7277965222,204099.9700546229,545601.3435842209,545250.644713717,545375.5686134777,TASK1
2026-05-26T10:00:17.463+00:00,770,52243,211687.94026231053,205905.09693683352,544574.7279613886,544630.3838050823,204109.6260082276,545588.2678137145,545237.5689432108,545362.4928429715,TASK1
2026-05-26T10:00:17.463+00:00,770,52244,211693.03646004634,205912.87534390396,544566.7483886181,544622.6724532453,204116.33153156418,545580.5564618774,545229.5893704402,545354.5132702009,TASK1
2026-05-26T10:00:17.463+00:00,770,52245,211702.1559717841,205923.33596030905,544564.9378973172,544621.1301828779,204121.4277293,545578.7459705765,545227.7788791393,545352.9709998334,TASK1
2026-05-26T10:00:17.463+00:00,770,52246,211711.81192538879,205933.7965767141,544577.8125021234,544633.7365667507,204125.71926423543,545595.6438893847,545245.2132398145,545370.1371395752,TASK1
2026-05-26T10:00:17.463+00:00,770,52247,211715.83523939076,205935.13768138143,544680.54111964,544736.4651842673,204129.4743573039,545703.2004837036,545352.7698341333,545477.6937338941,TASK1
2026-05-26T10:00:17.463+00:00,770,52248,211712.14720155564,205929.3038760786,544727.7480039296,544783.4038476234,204126.05454040226,545742.0925190559,545391.6618694856,545516.5857692463,TASK1
2026-05-26T10:00:17.463+00:00,770,52249,211705.77695438586,205920.2514195742,544706.0891635525,544761.7450072462,204120.75717696635,545719.3607949449,545368.6619244411,545493.5858242018,TASK1
2026-05-26T10:00:17.463+00:00,770,52250,211704.77112588537,205914.9540561383,544695.9638233142,544751.8878879413,204115.7280344639,545709.5036756401,545359.0730260698,545483.9969258305,TASK1
2026-05-26T10:00:17.463+00:00,770,52251,211706.38045148615,205910.19313456933,544690.3982389448,544746.0540826386,204112.84465942916,545703.9380912707,545353.5074417004,545478.4313414611,TASK1
2026-05-26T10:00:17.463+00:00,770,52252,211707.72155615347,205903.01822459916,544677.5906893719,544733.2465330657,204110.2295053279,545690.8623207643,545340.431671194,545465.3555709547,TASK1
2026-05-26T10:00:17.463+00:00,770,52253,211705.64284391914,205895.84331462902,544662.3691513978,544718.0249950916,204107.61435122663,545675.6407827903,545324.9419122866,545450.1340329807,TASK1
2026-05-26T10:00:17.463+00:00,770,52254,211705.44167821904,205892.42349772734,544653.3166948935,544708.9725385872,204102.85342965764,545666.588326286,545315.8894557821,545441.3497974097,TASK1
2026-05-26T10:00:17.463+00:00,770,52255,211707.31922475327,205893.4963814612,544653.8531367604,544709.2407595207,204102.3840430241,545666.8565472193,545316.425897649,545441.8862392767,TASK1
2026-05-26T10:00:17.463+00:00,770,52256,211712.68364342256,205898.32435826355,544653.3837501268,544708.7713728871,204105.33447329217,545666.3871605858,545315.9565110155,545441.4168526431,TASK1
2026-05-26T10:00:17.463+00:00,770,52257,211717.24339929144,205902.61589319896,544644.5995145559,544699.7189163826,204105.60269422564,545657.6029250149,545306.9040545111,545432.3643961387,TASK1
2026-05-26T10:00:17.463+00:00,770,52258,211721.53493422686,205907.17564906785,544631.2555231161,544686.1067040095,204103.5239819913,545644.258933575,545293.2918421378,545418.7521837654,TASK1
2026-05-26T10:00:17.463+00:00,770,52259,211726.89935289611,205914.68583520484,544623.5441712791,544678.6635731058,204101.71349069042,545636.2793608045,545285.5804903008,545411.0408319284,TASK1
2026-05-26T10:00:17.463+00:00,770,52260,211732.80021343232,205921.39135854144,544622.0019009116,544677.1213027383,204101.24410405685,545634.4688695036,545284.0382199333,545409.7667824944,TASK1
2026-05-26T10:00:17.463+00:00,770,52261,211738.70107396852,205925.9511144103,544622.0019009116,544676.9201370382,204104.7309761919,545634.7370904371,545284.0382199333,545409.7667824944,TASK1
2026-05-26T10:00:17.463+00:00,770,52262,211738.70107396852,205931.31553307959,544616.9727584091,544672.1592154693,204109.8271739277,545629.7079479346,545279.2772983643,545404.4694190585,TASK1
2026-05-26T10:00:17.463+00:00,770,52263,211739.50573676892,205934.2659633477,544603.6287669693,544658.8152240295,204112.50938326234,545616.6321774283,545266.201527858,545391.1254276187,TASK1
2026-05-26T10:00:17.463+00:00,770,52264,211744.33371357125,205934.53418428116,544596.1856360657,544651.3720931258,204117.33736006467,545609.1890465247,545258.4901760209,545383.4140757816,TASK1
2026-05-26T10:00:17.463+00:00,770,52265,211751.5756787748,205935.87528894847,544596.9902988661,544652.1767559262,204123.50644153435,545609.9937093251,545259.2948388213,545384.218738582,TASK1
2026-05-26T10:00:17.463+00:00,770,52266,211758.54942304484,205938.5574982831,544598.5996244668,544653.786081527,204129.40730207055,545611.8712558593,545260.9041644221,545386.0962851163,TASK1
2026-05-26T10:00:17.463+00:00,770,52267,211763.64562078065,205942.17848088488,544592.1623220637,544647.6840552908,204137.25276437437,545606.3056714899,545255.204469586,545380.5977559802,TASK1
2026-05-26T10:00:17.463+00:00,770,52268,211766.05960918183,205941.7090942513,544578.8183306239,544634.3400638509,204142.34896211018,545592.9616800501,545242.1286990796,545367.5219854739,TASK1
2026-05-26T10:00:17.463+00:00,770,52269,211772.76513251843,205940.97148668428,544570.3023159865,544626.0922701469,204147.9816017129,545584.4456654127,545233.6126844422,545359.0059708364,TASK1
2026-05-26T10:00:17.463+00:00,770,52270,211781.34820238926,205940.7703209842,544569.8329293529,544625.6228835133,204155.4917878499,545583.4398369122,545232.8750768751,545358.2683632694,TASK1
2026-05-26T10:00:17.463+00:00,770,52271,211790.73593506048,205941.03854191763,544569.8329293529,544625.8911044468,204164.3430786542,545583.4398369122,545232.673911175,545357.7989766358,TASK1
2026-05-26T10:00:17.463+00:00,770,52272,211801.19655146557,205938.9598296833,544561.5851356488,544617.6433107428,204175.07191599274,545575.4602641416,545224.6943384045,545349.8194038653,TASK1
2026-05-26T10:00:17.463+00:00,770,52273,211807.90207480214,205939.7644924837,544547.7047023422,544603.762877436,204183.11854399665,545562.3844936353,545211.3503469647,545336.4754124255,TASK1
2026-05-26T10:00:17.463+00:00,770,52274,211815.1440400057,205942.98314368524,544540.7980133054,544596.8561883994,204188.48296266593,545555.2095836651,545204.7118788614,545329.3005024553,TASK1
2026-05-26T10:00:17.463+00:00,770,52275,211824.5317726769,205947.54289955413,544542.1391179728,544598.1972930667,204193.8473813352,545556.8189092659,545206.3212044622,545330.6416071226,TASK1
2026-05-26T10:00:17.463+00:00,770,52276,211831.2372960135,205949.9568879553,544544.8213273074,544600.8795024013,204199.48002093795,545561.3786651348,545210.6127393977,545335.2013629915,TASK1
2026-05-26T10:00:17.766+00:00,771,52277,211832.84662161427,205946.8052919871,544570.3023159865,544626.0922701469,204200.5529046718,545589.0054212816,545238.2394955443,545363.0963400718,TASK1
2026-05-26T10:00:17.766+00:00,771,52278,211834.45594721506,205938.02105641618,544582.6404789258,544638.6986540197,204199.01063430437,545597.3202702189,545246.8225654153,545371.6794099426,TASK1
2026-05-26T10:00:17.766+00:00,771,52279,211834.25478151496,205928.43215804486,544571.9786968206,544628.0368719145,204194.51793366886,545586.1220462468,545235.8925623766,545360.749406904,TASK1
2026-05-26T10:00:17.766+00:00,771,52280,211832.98073208102,205925.28056207666,544569.8999845863,544625.6899387467,204189.48879116643,545584.3115549459,545233.5456292088,545358.6706946696,TASK1
2026-05-26T10:00:17.766+00:00,771,52281,211833.51717394794,205926.62166674397,544567.284830485,544623.0747846455,204190.82989583374,545581.6964008446,545231.198696041,545356.0555405683,TASK1
2026-05-26T10:00:17.766+00:00,771,52282,211832.77956638092,205924.8111754431,544557.6959321137,544613.4858862741,204190.0922882667,545572.1075024733,545221.6097976697,545346.466642197,TASK1
2026-05-26T10:00:17.766+00:00,771,52283,211830.96907508004,205920.31847480757,544544.8883825408,544600.9465576347,204190.0922882667,545559.2999529004,545209.0704690302,545333.6590926241,TASK1
2026-05-26T10:00:17.766+00:00,771,52284,211827.54925817836,205917.16687883937,544537.4452516371,544593.5034267311,204192.77449760135,545551.8568219969,545201.6273381267,545325.947740787,TASK1
2026-05-26T10:00:17.766+00:00,771,52285,211828.35392097876,205913.74706193773,544537.4452516371,544593.302261031,204194.92026506906,545551.6556562968,545201.157951493,545325.746575087,TASK1
2026-05-26T10:00:17.766+00:00,771,52286,211831.84079311378,205907.64503570143,544537.9816935041,544593.8387028979,204196.7978116033,545552.1920981637,545201.4261724266,545326.2830169539,TASK1
2026-05-26T10:00:17.766+00:00,771,52287,211833.45011871457,205902.34767226552,544530.5385626005,544586.6637929277,204196.7978116033,545545.0171881935,545193.9830415229,545318.8398860502,TASK1
2026-05-26T10:00:17.766+00:00,771,52288,211833.45011871457,205900.0007390977,544521.0167194625,544576.9407840897,204198.07186103726,545534.9589031886,545183.6565355845,545309.0498219788,TASK1
2026-05-26T10:00:17.766+00:00,771,52289,211833.9865605815,205900.53718096463,544513.5735885589,544569.2294322526,204197.33425347024,545527.2475513516,545176.213404681,545301.6066910751,TASK1
2026-05-26T10:00:17.766+00:00,771,52290,211838.27809551693,205906.16982056736,544513.3724228588,544569.2294322526,204197.13308777014,545527.0463856515,545176.0122389809,545301.1373044417,TASK1
2026-05-26T10:00:17.766+00:00,771,52291,211839.08275831732,205906.43804150083,544540.7309580721,544597.1244093329,204195.05437553578,545560.5740023344,545209.5398556638,545334.6649211246,TASK1
2026-05-26T10:00:17.766+00:00,771,52292,211833.51717394794,205893.36227099446,544712.1241345553,544768.2493648827,204187.87946556564,545736.2587137531,545384.956346149,545510.0814116099,TASK1
2026-05-26T10:00:17.766+00:00,771,52293,211823.12361277622,205865.26612821416,544763.6225537804,544820.0160050412,204172.3897066581,545778.6376212403,545427.6034745697,545552.7285400305,TASK1
2026-05-26T10:00:17.766+00:00,771,52294,211809.2431794695,205831.00090396416,544733.6488644659,544790.31053666,204156.6317268171,545748.1274900589,545397.3615643217,545522.4866297825,TASK1
2026-05-26T10:00:17.766+00:00,771,52295,211798.5813973643,205798.0767843815,544721.1095358264,544777.5029870871,204144.36061911116,545735.319940486,545384.5540147488,545509.6790802097,TASK1
2026-05-26T10:00:17.766+00:00,771,52296,211789.79716179337,205770.51708346812,544711.520637455,544767.6458677824,204133.96705793944,545725.7310421147,545374.4286745106,545499.8219609049,TASK1
2026-05-26T10:00:17.766+00:00,771,52297,211778.33071688778,205748.59002215744,544696.835541348,544752.6925507417,204124.10993863465,545711.314166941,545359.7435784035,545485.1368647977,TASK1
2026-05-26T10:00:17.766+00:00,771,52298,211766.05960918183,205732.29560044952,544679.7364568396,544735.861687167,204117.73969146487,545693.9468614992,545342.6444938951,545467.7695593559,TASK1
2026-05-26T10:00:17.766+00:00,771,52299,211756.4707108105,205724.316027679,544669.3428956679,544725.1999050617,204115.12453736362,545682.7486375271,545331.9827117899,545457.1077772508,TASK1
2026-05-26T10:00:17.766+00:00,771,52300,211754.92844044307,205719.82332704347,544666.4595206332,544722.316530027,204114.65515073005,545680.1334834258,545329.0993367552,545454.4926231495,TASK1
2026-05-26T10:00:17.766+00:00,771,52301,211756.53776604385,205711.84375427294,544663.8443665319,544719.7013759257,204114.65515073005,545677.250108391,545326.2159617204,545451.6092481147,TASK1
2026-05-26T10:00:17.766+00:00,771,52302,211754.45905380952,205702.79129776853,544654.5236890941,544710.6489194214,204111.23533382837,545667.9294309532,545317.1635052161,545442.2885706769,TASK1
2026-05-26T10:00:17.766+00:00,771,52303,211753.98966717595,205696.1528296653,544641.9843604546,544697.8413698485,204109.42484252751,545655.6583232472,545304.6241765766,545429.7492420374,TASK1
2026-05-26T10:00:17.766+00:00,771,52304,211757.476539311,205697.49393433263,544632.9319039503,544688.788913344,204111.57060999522,545646.6058667429,545295.3034991388,545420.6967855331,TASK1
2026-05-26T10:00:17.766+00:00,771,52305,211761.7680742464,205702.32191113496,544632.9319039503,544688.5877476439,204116.93502866448,545646.4047010428,545295.3034991388,545420.6967855331,TASK1
2026-05-26T10:00:17.766+00:00,771,52306,211765.79138824836,205704.46767860267,544633.2001248837,544688.8559685774,204120.69012173297,545647.2093638432,545295.5717200723,545421.2332274,TASK1
2026-05-26T10:00:17.766+00:00,771,52307,211765.79138824836,205700.51141983407,544630.0485289155,544685.9725935427,204124.176993868,545644.3259888084,545293.2247869044,545418.6180732987,TASK1
2026-05-26T10:00:17.766+00:00,771,52308,211765.79138824836,205699.23737040014,544618.3138630765,544673.9697067701,204126.05454040226,545631.786660169,545280.9536791985,545406.3469655927,TASK1
2026-05-26T10:00:17.766+00:00,771,52309,211769.27826038338,205701.91957973476,544610.8707321729,544666.2583549331,204130.8825172046,545624.3435292654,545273.2423273614,545398.6356137557,TASK1
2026-05-26T10:00:17.766+00:00,771,52310,211776.25200465345,205704.06534720247,544609.3284618055,544664.7160845657,204137.05159867427,545623.0694798314,545271.9682779275,545397.3615643217,TASK1
2026-05-26T10:00:17.766+00:00,771,52311,211784.83507452428,205704.06534720247,544609.8649036724,544664.9843054991,204145.09822667818,545623.0694798314,545271.9682779275,545397.3615643217,TASK1
2026-05-26T10:00:17.766+00:00,771,52312,211791.80881879435,205705.40645186979,544602.1535518353,544657.0047327286,204151.80375001478,545615.0899070608,545264.2569260903,545389.9184334181,TASK1
2026-05-26T10:00:17.766+00:00,771,52313,211796.2344641965,205711.44142287274,544590.4188859962,544646.0076744566,204157.6375553176,545604.0257935555,545252.8575364181,545378.5190437459,TASK1
2026-05-26T10:00:17.766+00:00,771,52314,211799.45311539806,205717.87872527586,544582.7075341592,544638.2963226195,204163.0019739869,545596.0462207849,545245.1461845811,545370.8076919088,TASK1
2026-05-26T10:00:17.766+00:00,771,52315,211806.15863873463,205725.6571323463,544584.31685976,544640.1738691537,204170.2439391904,545597.6555463857,545246.7555101819,545372.1487965762,TASK1
2026-05-26T10:00:17.766+00:00,771,52316,211810.45017367005,205735.04486501752,544585.1215225604,544641.5149738211,204179.63167186163,545598.9966510531,545247.8283939157,545373.4899012435,TASK1
2026-05-26T10:00:17.766+00:00,771,52317,211811.25483647044,205736.9224115518,544577.4101707232,544633.5354010506,204187.67829986554,545591.0170782825,545240.1170420786,545365.7785494063,TASK1
2026-05-26T10:00:17.766+00:00,771,52318,211812.3277202043,205733.7708155836,544564.6026211503,544620.7278514777,204192.50627666787,545578.2095287096,545227.3094925057,545352.9709998334,TASK1
2026-05-26T10:00:17.766+00:00,771,52319,211816.35103420625,205733.30142895,544557.1594902468,544613.5529415074,204197.87069533716,545570.766397806,545219.8663616021,545345.5278689299,TASK1
2026-05-26T10:00:17.766+00:00,771,52320,211821.983673809,205736.25185921811,544557.4277111802,544614.3576043078,204207.25842800838,545571.3028396729,545220.1345825356,545345.7960898633,TASK1
2026-05-26T10:00:17.766+00:00,771,52321,211827.8845343452,205739.20228948622,544568.9612113192,544625.8911044468,204218.2554862804,545586.5914328804,545235.1549548096,545361.0846830708,TASK1
2026-05-26T10:00:17.766+00:00,771,52322,211831.10318554676,205734.44136791723,544649.6957122918,544706.0891635525,204220.13303281463,545670.5445850545,545319.3763279172,545444.7696143114,TASK1
2026-05-26T10:00:17.766+00:00,771,52323,211830.90201984666,205722.43848114475,544681.077561507,544737.2027918343,204211.61701817717,545695.2209109331,545344.3208747293,545469.4459401901,TASK1
2026-05-26T10:00:17.766+00:00,771,52324,211826.1410982777,205708.55804783799,544663.1738141982,544719.567265459,204205.2467710074,545676.7807217576,545326.1489064872,545451.5421928813,TASK1
2026-05-26T10:00:17.766+00:00,771,52325,211823.79416510987,205700.57847506745,544654.6577995608,544711.319471755,204198.3400819707,545668.5329280535,545317.6328918496,545443.0261782439,TASK1
2026-05-26T10:00:17.766+00:00,771,52326,211823.79416510987,205692.86712323036,544649.6286570583,544706.2903292526,204194.92026506906,545663.2355646176,545312.3355284138,545437.9970357415,TASK1
2026-05-26T10:00:17.766+00:00,771,52327,211824.33060697682,205687.301538861,544637.8939912193,544694.2874424801,204192.30511096778,545651.232677845,545300.3326416413,545425.994148969,TASK1
2026-05-26T10:00:17.766+00:00,771,52328,211823.32477847632,205677.17619862274,544622.1360113784,544678.7976835725,204189.42173593305,545636.0111398711,545285.1111036672,545410.7726109949,TASK1
2026-05-26T10:00:17.766+00:00,771,52329,211823.12361277622,205668.66018398528,544613.6199967408,544670.2816689351,204189.22057023295,545627.4951252335,545276.3268680963,545402.2565963574,TASK1
2026-05-26T10:00:17.766+00:00,771,52330,211825.26938024393,205662.02171588206,544614.4246595412,544671.0863317355,204191.63455863413,545628.2997880339,545277.1315308966,545403.0612591578,TASK1
2026-05-26T10:00:17.766+00:00,771,52331,211831.97490358053,205656.9925733796,544614.9611014081,544671.3545526689,204192.97566330145,545628.2997880339,545277.6679727635,545403.0612591578,TASK1
2026-05-26T10:00:17.766+00:00,771,52332,211838.41220598365,205650.8905471433,544607.2497495711,544663.3749798983,204194.85320983568,545620.5884361969,545269.688399993,545395.6181282542,TASK1
2026-05-26T10:00:17.766+00:00,771,52333,211838.94864785057,205643.98385810663,544594.9786418651,544650.8356512589,204195.3896517026,545608.3173284909,545257.1490713536,545383.0787996148,TASK1
2026-05-26T10:00:17.766+00:00,771,52334,211839.75331065097,205640.83226213843,544586.7308481612,544642.5878575549,204194.92026506906,545600.3377557204,545249.1694985831,545374.5627849773,TASK1
2026-05-26T10:00:17.766+00:00,771,52335,211842.97196185254,205643.78269240653,544586.7308481612,544642.3866918548,204195.9931488029,545600.1365900203,545248.968332883,545374.3616192772,TASK1
2026-05-26T10:00:17.766+00:00,771,52336,211843.240182786,205647.26956454155,544585.1885777937,544640.5762005539,204197.33425347024,545598.3260987194,545247.1578415821,545372.5511279764,TASK1
2026-05-26T10:00:17.766+00:00,771,52337,211842.50257521897,205645.45907324067,544577.4772259566,544633.4012905838,204201.0893465387,545591.1511887492,545239.7147106784,545365.1079970727,TASK1
2026-05-26T10:00:17.766+00:00,771,52338,211845.1847845536,205642.30747727246,544565.4743391841,544621.3984038113,204205.91732334107,545578.8800810432,545227.4436029724,545353.1051103002,TASK1
2026-05-26T10:00:17.766+00:00,771,52339,211850.01276135596,205644.72146567365,544557.4947664136,544613.6870519742,204210.7453001434,545571.1687292062,545219.7322511354,545345.1255375297,TASK1
2026-05-26T10:00:17.766+00:00,771,52340,211859.3334387938,205651.4940442436,544557.6288768803,544613.4188310407,204220.33419851473,545571.1687292062,545220.1345825356,545345.3937584631,TASK1
2026-05-26T10:00:17.766+00:00,771,52341,211866.57540399733,205653.90803264477,544558.1653187473,544613.9552729076,204228.1126055852,545571.4369501397,545220.4028034691,545345.6619793966,TASK1
2026-05-26T10:00:17.766+00:00,771,52342,211871.9398226666,205653.4386460112,544550.990408777,544607.048583871,204232.94058238753,545564.2620401694,545213.4961144323,545338.4870694265,TASK1
2026-05-26T10:00:17.766+00:00,771,52343,211871.2022150996,205649.75060817608,544538.1828592042,544593.9728133646,204234.28168705484,545551.4544905967,545200.6885648594,545325.41129892,TASK1
2026-05-26T10:00:17.766+00:00,771,52344,211871.47043603304,205647.67189594175,544531.2761701675,544587.066124328,204239.37788479065,545544.5478015599,545193.5136548893,545318.2363889499,TASK1
2026-05-26T10:00:17.766+00:00,771,52345,211874.42086630114,205650.62232620985,544532.0808329679,544587.8707871283,204246.35162906072,545545.0842434268,545193.7818758228,545319.0410517503,TASK1
2026-05-26T10:00:17.766+00:00,771,52346,211874.9573081681,205655.9867448791,544532.6172748348,544587.8707871283,204250.37494306266,545545.0842434268,545194.3183176897,545319.5774936173,TASK1
2026-05-26T10:00:17.766+00:00,771,52347,211877.6395175027,205658.9371751472,544524.6377020642,544580.1594352913,204255.20291986503,545537.3728915898,545186.3387449192,545312.1343627137,TASK1
2026-05-26T10:00:17.766+00:00,771,52348,211880.58994777082,205656.32202104595,544513.1712571587,544568.6929903857,204261.1037804012,545525.9064466842,545174.8723000136,545300.3996968745,TASK1
2026-05-26T10:00:17.766+00:00,771,52349,211884.88148270623,205654.2433088116,544505.7281262551,544561.249859482,204265.6635362701,545518.731536714,545167.42916911,545292.956565971,TASK1
