timestamp_utc,packet_index,sample_index,AF3,AF4,F3,F4,FC5,FC6,O2,O1,label
2026-05-26T10:01:26.932+00:00,987,69577,212338.64424689344,188776.57518107595,545520.5420280149,545576.1308164753,194628.55245215326,546538.3734152762,546184.9252802045,546310.1174008986,TASK2
2026-05-26T10:01:26.932+00:00,987,69578,212342.39933996194,188778.18450667674,545520.5420280149,545576.3990374088,194630.42999868753,546538.6416362097,546184.9252802045,546310.3856218321,TASK2
2026-05-26T10:01:26.932+00:00,987,69579,212344.27688649617,188778.18450667674,545512.8306761779,545568.9559065051,194627.81484458625,546530.9302843726,546176.9457074339,546302.4060490616,TASK2
2026-05-26T10:01:26.932+00:00,987,69580,212347.49553769775,188775.83757350894,545504.0464406069,545559.9034500007,194623.85858581765,546522.1460488017,546168.4296927964,546293.6218134906,TASK2
2026-05-26T10:01:26.932+00:00,987,69581,212353.66461916742,188775.83757350894,545502.7723911729,545558.0929586998,194622.31631545024,546520.3355575008,546166.6192014955,546292.0795431233,TASK2
2026-05-26T10:01:26.932+00:00,987,69582,212362.78413090517,188777.17867817625,545505.4546005076,545561.043388968,194622.11514975014,546523.2859877689,546169.3014108302,546294.7617524578,TASK2
2026-05-26T10:01:26.932+00:00,987,69583,212369.75787517524,188776.17284967576,545505.2534348075,545561.043388968,194619.23177471542,546523.2859877689,546168.8320241966,546294.5605867577,TASK2
2026-05-26T10:01:26.932+00:00,987,69584,212372.9765263768,188773.28947464103,545499.1514085712,545554.6731417981,194618.76238808184,546517.1839615325,546162.9982188938,546288.7267814549,TASK2
2026-05-26T10:01:26.932+00:00,987,69585,212375.65873571142,188772.28364614054,545489.5625101998,545545.0842434268,194620.10349274916,546507.5950631612,546153.677541456,546279.1378830835,TASK2
2026-05-26T10:01:26.932+00:00,987,69586,212378.34094504607,188772.28364614054,545504.0464406069,545559.5681738339,194620.90815554955,546526.3705285037,546172.1847858649,546297.913348426,TASK2
2026-05-26T10:01:26.932+00:00,987,69587,212381.8278171811,188771.27781764005,545609.1890465247,545664.1743378848,194617.75655958135,546633.9271228226,546279.4731592505,546404.933500878,TASK2
2026-05-26T10:01:26.932+00:00,987,69588,212383.1689218484,188761.9571402022,545648.3493028104,545703.066373237,194607.89944027655,546666.6500767053,546312.196113133,546437.6564547606,TASK2
2026-05-26T10:01:26.932+00:00,987,69589,212378.6762212129,188745.93093942772,545629.3726717678,545684.6261840613,194597.50587910484,546647.4052247292,546292.9512611569,546418.4116027846,TASK2
2026-05-26T10:01:26.932+00:00,987,69590,212373.378857777,188728.02719211904,545610.9324825922,545666.1859948857,194587.9169807335,546628.9650355536,546274.5110719813,546399.7031926755,TASK2
2026-05-26T10:01:26.932+00:00,987,69591,212372.3730292765,188715.21964254614,545602.4164679548,545657.6699802482,194581.2785126303,546620.7172418495,546266.2632782774,546391.4553989714,TASK2
2026-05-26T10:01:26.932+00:00,987,69592,212374.25057581076,188709.38583724332,545601.9470813212,545656.9323726812,194575.44470732746,546619.7114133491,546265.5256707103,546390.7177914045,TASK2
2026-05-26T10:01:26.932+00:00,987,69593,212376.128122345,188703.55203194046,545600.9412528207,545655.9265441807,194570.68378575848,546618.4373639151,546264.2516212764,546389.4437419705,TASK2
2026-05-26T10:01:26.932+00:00,987,69594,212373.5129682437,188697.9864475711,545592.9616800501,545647.9469714102,194564.58175952217,546610.1895702111,546256.0038275723,546381.4641691999,TASK2
2026-05-26T10:01:26.932+00:00,987,69595,212373.78118917719,188694.0301888025,545581.763456078,545636.7487474381,194559.55261701974,546599.2595671725,546244.8056036002,546370.2659452278,TASK2
2026-05-26T10:01:26.932+00:00,987,69596,212376.4633985118,188691.6832556347,545576.7343135756,545631.9878258691,194559.08323038617,546594.23042467,546240.0446820313,546365.5050236589,TASK2
2026-05-26T10:01:26.932+00:00,987,69597,212377.80450317913,188687.7269968661,545578.6118601098,545634.1335933368,194559.35145131964,546596.1079712043,546242.4586704324,546367.6507911265,TASK2
2026-05-26T10:01:26.932+00:00,987,69598,212377.80450317913,188685.11184276483,545577.8742525427,545633.3959857698,194558.88206468607,546594.8339217703,546241.1846209985,546366.6449626262,TASK2
2026-05-26T10:01:26.932+00:00,987,69599,212377.0668956121,188682.76490959703,545569.0900169718,545624.8799711323,194558.88206468607,546586.5861280663,546232.668606361,546358.3971689221,TASK2
2026-05-26T10:01:26.932+00:00,987,69600,212376.06106711162,188680.95441829617,545557.6235720663,545613.6817471602,194559.95494841994,546575.3879040942,546221.4703823889,546347.19894495,TASK2
2026-05-26T10:01:26.932+00:00,987,69601,212378.74327644627,188682.02730203,545553.9355342311,545609.4572674581,194562.10071588765,546571.4316453256,546217.5141236203,546343.5109071148,TASK2
2026-05-26T10:01:26.932+00:00,987,69602,212384.64413698248,188685.24595323158,545557.6906272996,545613.2123605267,194566.92869268998,546575.1867383941,546221.2692166888,546346.9977792499,TASK2
2026-05-26T10:01:26.932+00:00,987,69603,212389.74033471828,188686.85527883237,545558.7635110335,545614.2852442604,194569.61090202464,546576.259622128,546222.6103213561,546348.0706629837,TASK2
2026-05-26T10:01:26.932+00:00,987,69604,212393.0260411532,188687.25761023257,545553.6673132976,545608.7867151245,194572.29311135926,546571.4316453256,546218.2517311873,546342.8403547812,TASK2
2026-05-26T10:01:26.932+00:00,987,69605,212392.8248754531,188685.9835607986,545543.8101939929,545598.6613748862,194570.21439912493,546561.3063050874,546207.8581700156,546332.7150145429,TASK2
2026-05-26T10:01:26.932+00:00,987,69606,212392.35548881954,188688.1293282663,545540.3903770912,545595.509778918,194570.01323342483,546558.1547091191,546204.438353114,546329.8316395083,TASK2
2026-05-26T10:01:26.932+00:00,987,69607,212391.61788125252,188693.76196786904,545544.1454701597,545599.53309292,194572.15900089254,546561.9098021877,546208.4616671159,546333.5867325767,TASK2
2026-05-26T10:01:26.932+00:00,987,69608,212390.8802736855,188695.90773533675,545544.9501329601,545600.0695347869,194574.03654742677,546562.4462440546,546208.9981089828,546334.3913953771,TASK2
2026-05-26T10:01:26.932+00:00,987,69609,212389.3380033181,188694.6336859028,545538.3116648569,545593.1628457502,194571.95783519244,546555.539555018,546202.0914199462,546327.4847063404,TASK2
2026-05-26T10:01:26.932+00:00,987,69610,212388.86861668451,188691.21386900113,545527.9181036851,545582.7692845785,194569.34268109116,546545.6824357131,546192.5025215748,546317.6275870356,TASK2
2026-05-26T10:01:26.932+00:00,987,69611,212390.20972135183,188691.4820899346,545525.3029495839,545580.4223514107,194570.14734389156,546543.0672816118,546189.8873674736,546315.2806538678,TASK2
2026-05-26T10:01:26.932+00:00,987,69612,212388.39923005094,188694.16429926924,545528.253379852,545583.1045607453,194573.09777415966,546546.0177118799,546192.3013558747,546317.9628632024,TASK2
2026-05-26T10:01:26.932+00:00,987,69613,212386.58873875008,188696.31006673694,545529.5944845193,545584.4456654127,194577.925750962,546547.0905956138,546193.642460542,546319.3039678697,TASK2
2026-05-26T10:01:26.932+00:00,987,69614,212385.5829102496,188696.57828767042,545523.492458283,545578.6118601098,194580.8761812301,546541.256790311,546187.8086552392,546313.470162567,TASK2
2026-05-26T10:01:26.932+00:00,987,69615,212385.3817445495,188698.1876132712,545512.5624552444,545567.6818570711,194582.48550683088,546530.0585663388,546176.6104312671,546302.5401595283,TASK2
2026-05-26T10:01:26.932+00:00,987,69616,212386.1864073499,188701.9427063397,545514.708222712,545569.8276245389,194586.50882083282,546534.0818803408,546180.633745269,546306.2952525967,TASK2
2026-05-26T10:01:26.932+00:00,987,69617,212387.25929108373,188703.28381100702,545551.9909324636,545607.3785552238,194591.3367976352,546572.973915693,546219.5257806212,546344.9190670155,TASK2
2026-05-26T10:01:26.932+00:00,987,69618,212387.25929108373,188702.81442437344,545569.6935140721,545624.5446949655,194596.70121630447,546587.1896251666,546233.7414900948,546359.4029974226,TASK2
2026-05-26T10:01:26.932+00:00,987,69619,212385.1805788494,188699.93104933872,545557.9588482331,545613.3464709934,194599.3834256391,546575.4549593276,546222.2750451893,546347.6683315835,TASK2
2026-05-26T10:01:26.932+00:00,987,69620,212384.71119221582,188698.92522083822,545545.9559614606,545601.0753632874,194598.91403900553,546563.4520725551,546210.0039374833,546335.9336657445,TASK2
2026-05-26T10:01:26.932+00:00,987,69621,212384.51002651572,188698.72405513813,545540.1221561577,545594.9733370511,194597.6399895716,546557.0818253853,546204.1701321804,546330.0998604416,TASK2
2026-05-26T10:01:26.932+00:00,987,69622,212388.80156145114,188697.1817847707,545540.6585980247,545595.509778918,194595.8294982707,546557.6182672522,546204.438353114,546330.6363023086,TASK2
2026-05-26T10:01:26.932+00:00,987,69623,212392.8248754531,188695.90773533675,545541.7314817585,545597.1191045188,194596.09771920418,546558.9593719195,546205.7794577812,546331.9774069759,TASK2
2026-05-26T10:01:26.932+00:00,987,69624,212396.04352665468,188695.90773533675,545533.751908988,545589.4077526818,194596.09771920418,546551.2480200825,546198.0681059442,546324.2660551389,TASK2
2026-05-26T10:01:26.932+00:00,987,69625,212397.92107318892,188694.0972440359,545521.4808012821,545577.1366449757,194595.89655350408,546538.9769123765,546185.7969982382,546311.7267264994,TASK2
2026-05-26T10:01:26.932+00:00,987,69626,212400.60328252355,188691.4820899346,545517.25632158,545572.6439443403,194594.35428313664,546535.0206536079,546181.8407394696,546307.5022467973,TASK2
2026-05-26T10:01:26.932+00:00,987,69627,212408.381689594,188692.01853180153,545520.743193715,545576.6672583421,194592.81201276922,546539.0439676099,546185.3276116047,546311.2573398659,TASK2
2026-05-26T10:01:26.932+00:00,987,69628,212416.96475946484,188693.8960783358,545521.279635582,545577.2037002092,194591.2697424018,546539.8486304103,546185.8640534716,546311.7937817328,TASK2
2026-05-26T10:01:26.932+00:00,987,69629,212423.93850373488,188690.20804050067,545514.1047256117,545570.028790239,194591.80618426873,546532.4054995066,546178.6891435015,546304.887092696,TASK2
2026-05-26T10:01:26.932+00:00,987,69630,212426.62071306954,188685.44711893168,545506.3933737747,545562.0492174685,194593.14728893607,546524.4259267361,546170.7095707309,546296.9075199255,TASK2
2026-05-26T10:01:26.932+00:00,987,69631,212426.888934003,188686.52000266552,545504.0464406069,545559.7022843006,194596.09771920418,546522.3472145018,546168.89907943,546294.8288076912,TASK2
2026-05-26T10:01:26.932+00:00,987,69632,212429.8393642711,188688.9339910667,545512.0930686108,545568.017133238,194599.04814947228,546530.3938425056,546177.2139283674,546302.8754356952,TASK2
2026-05-26T10:01:26.932+00:00,987,69633,212433.3262364061,188687.3917206993,545512.6295104778,545568.8217960384,194600.3892541396,546530.9302843726,546177.7503702343,546303.4118775621,TASK2
2026-05-26T10:01:26.932+00:00,987,69634,212435.7402248073,188684.50834566457,545507.0639261084,545562.9879907356,194602.5350216073,546524.8282581363,546171.648343998,546297.3098513257,TASK2
2026-05-26T10:01:26.932+00:00,987,69635,212437.885992275,188685.71533986513,545499.9560713716,545555.6119150653,194606.55833560924,546517.6533481661,546163.8699369276,546289.2632233219,TASK2
2026-05-26T10:01:26.932+00:00,987,69636,212440.29998067618,188686.788223599,545494.9269288691,545550.3145516294,194607.6312193431,546512.6242056637,546158.8407944251,546283.9658598859,TASK2
2026-05-26T10:01:26.932+00:00,987,69637,212444.32329467812,188687.86110733284,545497.6091382038,545552.996760964,194610.0452077443,546515.3064149984,546161.5230037598,546286.6480692206,TASK2
2026-05-26T10:01:26.932+00:00,987,69638,212448.883050547,188687.65994163274,545498.9502428711,545554.0696446978,194613.5320798793,546516.6475196657,546162.8641084271,546288.2573948214,TASK2
2026-05-26T10:01:26.932+00:00,987,69639,212453.97924828282,188684.776566598,545491.7753329009,545547.1629556612,194618.36005668165,546509.740830629,546155.6891984569,546281.0824848512,TASK2
2026-05-26T10:01:26.932+00:00,987,69640,212456.66145761748,188681.35674969637,545481.3817717292,545536.7693944895,194623.72447535093,546499.3472694573,546145.0274163517,546270.420702746,TASK2
2026-05-26T10:01:26.932+00:00,987,69641,212458.80722508518,188682.16141249676,545476.8890710938,545532.5449147874,194626.94312655248,546494.8545688217,546140.8029366496,546266.196223044,TASK2
2026-05-26T10:01:26.932+00:00,987,69642,212465.78096935523,188684.5754008979,545480.3759432287,545535.763565989,194627.21134748595,546498.3414409568,546144.0215878512,546269.4148742455,TASK2
2026-05-26T10:01:26.932+00:00,987,69643,212472.7547136253,188686.45294743218,545481.1806060291,545536.5682287894,194626.47373991893,546499.1461037572,546144.8262506516,546270.2195370459,TASK2
2026-05-26T10:01:26.932+00:00,987,69644,212477.8509113611,188688.86693583333,545474.8103588594,545529.9297606861,194623.32214395073,546492.507635654,546138.1877825484,546264.1175108096,TASK2
2026-05-26T10:01:26.932+00:00,987,69645,212483.75177189728,188691.01270330104,545465.7579023549,545520.8773041818,194618.29300144827,546483.186958216,546129.135326044,546255.0650543052,TASK2
2026-05-26T10:01:26.932+00:00,987,69646,212491.7983999012,188691.01270330104,545486.4109142317,545540.9938741915,194613.26385894584,546509.740830629,546155.6891984569,546281.3507057846,TASK2
2026-05-26T10:01:26.932+00:00,987,69647,212499.8450279051,188689.47043293362,545643.3201603079,545697.6348993343,194607.69827457645,546671.4780535076,546317.4264213355,546442.8197077297,TASK2
2026-05-26T10:01:26.932+00:00,987,69648,212498.57097847117,188680.14975549578,545718.6902426112,545773.2732025711,194597.5729343382,546737.7286240731,546383.676991901,546509.3384992288,TASK2
2026-05-26T10:01:26.932+00:00,987,69649,212487.10453356558,188660.90490351975,545694.3491928994,545749.2003737927,194585.0336056988,546712.3146906274,546358.2630584553,546483.9245657831,TASK2
2026-05-26T10:01:26.932+00:00,987,69650,212473.76054212576,188642.73293527757,545672.1539106553,545726.4686496817,194574.90826546054,546689.8511874499,546335.5313343443,546461.4610626055,TASK2
2026-05-26T10:01:26.932+00:00,987,69651,212465.51274842175,188629.1207229043,545661.2239076166,545715.2704257095,194570.68378575848,546678.6529634778,546324.3331103722,546449.9946177,TASK2
2026-05-26T10:01:27.352+00:00,988,69652,212462.62937338703,188618.99538266603,545658.3405325819,545712.9234925418,194569.14151539106,546676.0378093765,546321.4497353375,546447.3794635987,TASK2
2026-05-26T10:01:27.352+00:00,988,69653,212459.7459983523,188609.4064842947,545655.4571575471,545710.3083384405,194568.6721287575,546673.4226552752,546319.1028021696,546444.4960885639,TASK2
2026-05-26T10:01:27.352+00:00,988,69654,212453.643972116,188599.28114405647,545646.9411429097,545701.792323803,194565.5205327893,546664.6384197043,546310.5867875322,546435.9800739265,TASK2
2026-05-26T10:01:27.352+00:00,988,69655,212448.883050547,188592.10623408633,545635.2064770707,545690.3258788974,194565.05114615575,546653.1719747987,546298.8521216932,546424.5136290209,TASK2
2026-05-26T10:01:27.352+00:00,988,69656,212447.9442772799,188591.70390268613,545630.7808316685,545686.034343962,194568.73918399087,546648.7463293965,546294.9629181579,546420.3562045522,TASK2
2026-05-26T10:01:27.352+00:00,988,69657,212448.4807191468,188591.70390268613,545632.3901572693,545687.9118904963,194574.64004452707,546650.6238759308,546296.8404646922,546421.965530153,TASK2
2026-05-26T10:01:27.352+00:00,988,69658,212451.6993703484,188592.50856548653,545633.1948200697,545688.7165532967,194581.6137887971,546651.4285387312,546297.3769065591,546422.7701929534,TASK2
2026-05-26T10:01:27.352+00:00,988,69659,212450.96176278137,188593.04500735344,545627.3610147669,545682.8827479938,194587.51464933332,546645.3265124948,546291.2748803229,546416.668166717,TASK2
2026-05-26T10:01:27.352+00:00,988,69660,212449.95593428088,188595.72721668807,545617.7721163955,545673.562070556,194590.46507960142,546635.7376141235,546281.9542028849,546407.0792683457,TASK2
2026-05-26T10:01:27.352+00:00,988,69661,212447.60900111307,188598.67764695617,545626.6234071999,545682.4133613602,194593.683730803,546648.6122189298,546294.8288076912,546419.6856522185,TASK2
2026-05-26T10:01:27.352+00:00,988,69662,212448.41366391347,188601.3598562908,545704.4074779042,545760.1974320647,194597.4388238715,546727.7373943016,546373.953983063,546498.5426066569,TASK2
2026-05-26T10:01:27.352+00:00,988,69663,212448.41366391347,188595.79427192145,545728.547361916,545784.069095143,194595.09189070368,546747.049301511,546393.2658902723,546518.1227347997,TASK2
2026-05-26T10:01:27.352+00:00,988,69664,212439.36120740906,188585.93715261665,545713.0576030085,545768.8475571689,194591.40385286856,546731.5595426034,546377.7761313649,546502.0965340253,TASK2
2026-05-26T10:01:27.352+00:00,988,69665,212431.11341370505,188580.10334731382,545696.4949603671,545752.016693594,194586.91115223302,546714.7286790286,546360.6770468565,546485.2656704504,TASK2
2026-05-26T10:01:27.352+00:00,988,69666,212423.40206186796,188578.29285601294,545687.9789457297,545743.5006789566,194583.2231143979,546706.2126643911,546351.8928112856,546476.749655813,TASK2
2026-05-26T10:01:27.352+00:00,988,69667,212417.83647749858,188579.36573974678,545687.2413381626,545743.031292323,194583.2231143979,546705.2068358907,546351.1552037186,546476.0120482459,TASK2
2026-05-26T10:01:27.352+00:00,988,69668,212415.22132339733,188579.1645740467,545685.9672887287,545742.0254638225,194581.6808440305,546704.4692283237,546350.1493752181,546474.737998812,TASK2
2026-05-26T10:01:27.352+00:00,988,69669,212410.19218089487,188578.9634083466,545677.9877159582,545734.3141119855,194580.40679459655,546696.489655553,546342.438023381,546467.0266469748,TASK2
2026-05-26T10:01:27.352+00:00,988,69670,212401.6761662574,188577.15291704572,545666.5212710525,545722.5794461464,194578.8645242291,546685.0232106475,546330.9715784754,546455.2919811358,TASK2
2026-05-26T10:01:27.352+00:00,988,69671,212395.30591908764,188574.26954201097,545662.028570417,545718.0867455109,194575.44470732746,546680.2622890786,546326.4788778399,546451.0675014338,TASK2
2026-05-26T10:01:27.352+00:00,988,69672,212391.886102186,188575.07420481136,545665.7836634855,545721.8418385794,194571.48844855887,546683.7491612135,546329.965749975,546454.8225945022,TASK2
2026-05-26T10:01:27.352+00:00,988,69673,212384.9794131493,188578.82929787986,545665.7836634855,545721.8418385794,194568.0686316572,546683.7491612135,546329.965749975,546454.6214288021,TASK2
2026-05-26T10:01:27.352+00:00,988,69674,212378.34094504607,188583.38905374875,545658.8769744488,545714.3987076757,194565.18525662247,546676.8424721769,546322.7908400048,546447.982960699,TASK2
2026-05-26T10:01:27.352+00:00,988,69675,212373.5800234771,188586.33948401685,545647.9469714102,545703.4687046371,194563.64298625506,546665.6442482048,546311.5926160327,546436.7847367269,TASK2
2026-05-26T10:01:27.352+00:00,988,69676,212367.74621817426,188588.48525148456,545643.4542707746,545698.9760040017,194561.56427402073,546661.4197685027,546307.6363572641,546432.0238151578,TASK2
2026-05-26T10:01:27.352+00:00,988,69677,212362.18063380488,188592.77678641997,545647.2093638432,545703.267538937,194561.36310832063,546665.7113034381,546311.9278921995,546436.0471291598,TASK2
2026-05-26T10:01:27.352+00:00,988,69678,212358.76081690323,188596.53187948847,545647.7458057101,545704.3404226709,194558.74795421935,546666.5159662385,546312.4643340665,546436.8517919602,TASK2
2026-05-26T10:01:27.352+00:00,988,69679,212356.95032560235,188598.67764695617,545640.8391166733,545696.8972917673,194555.05991638423,546659.3410562683,546305.2894240962,546429.9451029235,TASK2
2026-05-26T10:01:27.352+00:00,988,69680,212355.67627616838,188601.89629815775,545629.6408927012,545685.9672887287,194555.05991638423,546648.4110532297,546294.3594210576,546419.015099885,TASK2
2026-05-26T10:01:27.352+00:00,988,69681,212355.54216570166,188608.4677110276,545626.288131033,545682.2121956601,194558.27856758577,546644.6559601612,546291.0066593894,546416.2658353169,TASK2
2026-05-26T10:01:27.352+00:00,988,69682,212356.07860756858,188614.63679249727,545628.4338985006,545683.8215212609,194560.69255598696,546646.265285762,546292.6159849901,546417.8751609176,TASK2
2026-05-26T10:01:27.352+00:00,988,69683,212354.80455813464,188621.61053676732,545628.7021194341,545684.0897421944,194562.03366065427,546646.5335066954,546293.152426857,546418.4116027846,TASK2
2026-05-26T10:01:27.352+00:00,988,69684,212352.99406683375,188626.1702926362,545623.1365350648,545678.2559368915,194563.10654438814,546641.2361432596,546287.5868424877,546412.8460184152,TASK2
2026-05-26T10:01:27.352+00:00,988,69685,212352.79290113365,188628.3160601039,545612.2065320262,545667.5941547864,194562.10071588765,546630.5743611543,546276.9250603825,546402.1842363101,TASK2
2026-05-26T10:01:27.352+00:00,988,69686,212354.6704476679,188631.5347113055,545607.1773895237,545662.8332332174,194565.58758802267,546625.2769977185,546272.1641388135,546397.1550938076,TASK2
2026-05-26T10:01:27.352+00:00,988,69687,212356.01155233523,188636.36268810782,545609.5913779249,545664.9790006852,194569.61090202464,546627.6909861197,546274.3099062812,546399.8373031422,TASK2
2026-05-26T10:01:27.352+00:00,988,69688,212355.00572383474,188643.33643237787,545610.9324825922,545666.3201053524,194573.3659950931,546628.7638698535,546275.1145690816,546400.9101868761,TASK2
2026-05-26T10:01:27.352+00:00,988,69689,212351.58590693306,188648.96907198062,545604.5622354224,545659.9498581827,194577.65753002855,546622.6618436172,546269.0125428453,546394.5399397063,TASK2
2026-05-26T10:01:27.352+00:00,988,69690,212348.70253189834,188652.45594411565,545593.0957905168,545648.4834132771,194578.19397189547,546611.1953987116,546257.8143188732,546383.3417157342,TASK2
2026-05-26T10:01:27.352+00:00,988,69691,212347.16026153092,188655.94281625067,545591.2852992159,545646.6729219762,194579.53507656278,546610.9942330115,546257.8143188732,546383.1405500341,TASK2
2026-05-26T10:01:27.352+00:00,988,69692,212347.42848246437,188657.55214185145,545619.9849390966,545675.3725618569,194582.2172858974,546641.0349775595,546287.3186215542,546412.6448527151,TASK2
2026-05-26T10:01:27.352+00:00,988,69693,212350.11069179903,188656.81453428444,545631.786660169,545686.9060619958,194584.36305336512,546650.1544892972,546296.1699123585,546421.7643644529,TASK2
2026-05-26T10:01:27.352+00:00,988,69694,212347.22731676427,188655.27226391702,545620.5884361969,545675.7078380237,194582.28434113078,546638.6880443917,546284.9716883864,546410.2979195473,TASK2
2026-05-26T10:01:27.352+00:00,988,69695,212340.58884866105,188653.99821448306,545608.5855494244,545663.4367303177,194579.13274516258,546626.6851576192,546272.9688016139,546398.0268118414,TASK2
2026-05-26T10:01:27.352+00:00,988,69696,212337.70547362632,188652.18772318217,545603.2881859884,545658.4075878153,194578.39513759557,546621.1195732497,546267.4032172445,546392.7294484054,TASK2
2026-05-26T10:01:27.352+00:00,988,69697,212338.77835736016,188651.71833654863,545604.8975115892,545660.016913416,194579.73624226288,546622.7288988505,546269.2807637788,546394.3387740062,TASK2
2026-05-26T10:01:27.352+00:00,988,69698,212341.99700856174,188652.52299934902,545604.6963458891,545660.016913416,194583.49133533138,546622.997119784,546269.5489847122,546394.8752158731,TASK2
2026-05-26T10:01:27.352+00:00,988,69699,212344.14277602945,188653.05944121594,545596.4485521851,545651.7691197121,194586.9782074664,546614.4811051466,546261.3011910082,546386.3592012357,TASK2
2026-05-26T10:01:27.352+00:00,988,69700,212346.0203225637,188653.3276621494,545586.0549910134,545641.1073376068,194588.3193121337,546603.8193230414,546250.6394089031,546375.4291981971,TASK2
2026-05-26T10:01:27.352+00:00,988,69701,212346.82498536407,188654.40054588325,545579.4165229102,545634.4688695036,194588.58753306718,546597.1808549381,546243.7327198663,546369.0589510272,TASK2
2026-05-26T10:01:27.653+00:00,989,69702,212346.82498536407,188659.2285226856,545580.489406644,545635.809974171,194589.1239749341,546598.7901805389,546245.3420454671,546370.668276628,TASK2
2026-05-26T10:01:27.653+00:00,989,69703,212349.50719469873,188667.2751506895,545582.6351741118,545637.4192997718,194588.1181464336,546600.6677270732,546247.4878129349,546372.5458231623,TASK2
2026-05-26T10:01:27.653+00:00,989,69704,212354.87161336798,188672.90779029226,545576.5331478755,545631.0490526019,194584.4301085985,546594.2974799034,546240.8493448317,546366.1755759926,TASK2
2026-05-26T10:01:27.653+00:00,989,69705,212358.35848550303,188678.00398802807,545565.8713657702,545620.6554914302,194582.35139636416,546583.3674768647,546229.9193417929,546355.5137938873,TASK2
2026-05-26T10:01:27.653+00:00,989,69706,212363.18646230537,188684.4412904312,545563.2562116691,545618.0403373289,194580.2726841298,546580.48410183,546227.5724086252,546352.6304188527,TASK2
2026-05-26T10:01:27.653+00:00,989,69707,212372.5741949766,188691.1468137678,545570.2299559391,545625.2823025325,194582.4184515975,546587.994287967,546234.5461528952,546359.6041631227,TASK2
2026-05-26T10:01:27.653+00:00,989,69708,212383.83947418208,188695.6395144033,545574.3203251744,545629.4397270011,194588.25225690036,546592.6881543027,546238.5694668972,546363.4263114246,TASK2
2026-05-26T10:01:27.653+00:00,989,69709,212390.81321845212,188697.2488400041,545566.3407524038,545621.9965960976,194591.73912903538,546584.9768024655,546231.1263359935,546355.9831805209,TASK2
2026-05-26T10:01:27.653+00:00,989,69710,212396.71407898833,188701.00393307256,545555.9471912321,545611.6030349259,194596.29888490427,546574.3150203604,546220.7327748218,546345.3213984157,TASK2
2026-05-26T10:01:27.653+00:00,989,69711,212404.22426512532,188705.02724707453,545551.1862696632,545606.5738924234,194598.1764314385,546569.0176569244,546215.7036323195,546340.2922559133,TASK2
2026-05-26T10:01:27.653+00:00,989,69712,212412.80733499615,188710.65988667725,545552.795595264,545608.4514389576,194599.7857570393,546570.3587615917,546217.0447369867,546341.901581514,TASK2
2026-05-26T10:01:27.653+00:00,989,69713,212419.78107926622,188714.41497974575,545553.8684789977,545609.5243226915,194604.8819547751,546571.9680871925,546218.6540625875,546343.2426861814,TASK2
2026-05-26T10:01:27.653+00:00,989,69714,212422.99973046777,188716.56074721346,545548.034673695,545603.9587383221,194609.441710644,546566.1342818898,546212.8202572847,546337.677101812,TASK2
2026-05-26T10:01:27.653+00:00,989,69715,212426.21838166934,188715.82313964644,545537.1046706563,545593.0287352835,194612.12391997862,546554.9360579177,546201.8902542461,546326.7470987734,TASK2
2026-05-26T10:01:27.653+00:00,989,69716,212432.387463139,188718.50534898107,545532.8801909542,545588.536034648,194616.6836758475,546550.979799149,546197.9339954774,546322.5226190713,TASK2
2026-05-26T10:01:27.653+00:00,989,69717,212438.82476554211,188726.82019791845,545537.1717258897,545592.2911277164,194622.5845363837,546554.7348922176,546201.689088546,546326.5459330733,TASK2
2026-05-26T10:01:27.653+00:00,989,69718,212442.84807954408,188734.06216312197,545539.8539352244,545594.7051161176,194628.48539691992,546557.1488806186,546204.1030769472,546328.9599214745,TASK2
2026-05-26T10:01:27.653+00:00,989,69719,212443.92096327792,188739.15836085778,545534.0201299215,545589.1395317483,194633.04515278878,546551.8515171828,546198.5374925777,546323.3943371051,TASK2
2026-05-26T10:01:27.653+00:00,989,69720,212444.1891842114,188743.4498957932,545523.6265687498,545578.7459705765,194637.06846679075,546541.457956011,546188.143931406,546313.0007759334,TASK2
2026-05-26T10:01:27.653+00:00,989,69721,212443.71979757785,188746.4003260613,545537.037615423,545592.1570172497,194641.0917807927,546559.96520042,546206.651175815,546331.5080203423,TASK2
2026-05-26T10:01:27.653+00:00,989,69722,212443.25041094428,188743.51695102657,545656.9323726812,545712.3199954415,194640.62239415915,546683.0786088799,546329.7645842748,546454.6214288021,TASK2
2026-05-26T10:01:27.653+00:00,989,69723,212438.75771030877,188733.3916107883,545708.1625709728,545763.2819727996,194634.52036792284,546726.7986210345,546373.4845964294,546498.3414409568,TASK2
2026-05-26T10:01:27.653+00:00,989,69724,212430.50991660476,188720.04761934848,545688.6494980633,545743.76889989,194625.19969048497,546706.749106258,546353.7033025865,546478.2919261804,TASK2
2026-05-26T10:01:27.653+00:00,989,69725,212423.87144850154,188709.38583724332,545667.7953204865,545723.1829432467,194614.00146651285,546686.1631496147,546333.1173459431,546457.705969537,TASK2
2026-05-26T10:01:27.653+00:00,989,69726,212417.50120133176,188702.21092727315,545656.3288755809,545711.7164983412,194605.4854518754,546674.4284837757,546321.3826801041,546446.2395246314,TASK2
2026-05-26T10:01:27.653+00:00,989,69727,212411.39917509546,188697.1817847707,545654.51838428,545709.6377861068,194601.26097217333,546672.3497715413,546319.3039678697,546443.8925914636,TASK2
2026-05-26T10:01:27.653+00:00,989,69728,212406.6382535265,188692.15264226828,545652.4396720456,545707.5590738725,194595.4271668705,546670.0028383735,546317.2252556355,546441.5456582959,TASK2
2026-05-26T10:01:27.653+00:00,989,69729,212402.14555289096,188687.9281625662,545643.1189946078,545697.9701755012,194587.9840359669,546660.9503818691,546307.9045781975,546432.4932017914,TASK2
2026-05-26T10:01:27.653+00:00,989,69730,212398.99395692276,188682.09435726338,545630.5796659684,545685.6990677952,194585.10066093216,546648.6792741632,546295.3652495581,546420.2220940854,TASK2
2026-05-26T10:01:27.653+00:00,989,69731,212396.64702375495,188678.1380984948,545623.4047559983,545678.7923787585,194583.55839056475,546641.7725851265,546288.4585605215,546413.5836259823,TASK2
2026-05-26T10:01:27.653+00:00,989,69732,212399.06101215613,188677.40049092777,545625.550523466,545680.6699252927,194580.67501553,546643.3819107272,546290.3361070557,546415.1929515831,TASK2
2026-05-26T10:01:27.653+00:00,989,69733,212405.2300936258,188675.58999962689,545626.3551862664,545681.4745880931,194579.93740796298,546644.1865735276,546290.8725489227,546415.72939345,TASK2
2026-05-26T10:01:27.653+00:00,989,69734,212405.0289279257,188673.779508326,545618.6438344292,545674.0314571895,194578.39513759557,546636.4752216906,546283.6976389524,546408.5544834798,TASK2
2026-05-26T10:01:27.653+00:00,989,69735,212401.8773319575,188672.7736798255,545608.2502732575,545663.6378960178,194578.19397189547,546626.3498814523,546273.8405196477,546398.4291432416,TASK2
2026-05-26T10:01:27.653+00:00,989,69736,212399.5303987897,188672.0360722585,545605.0986772893,545660.4863000496,194580.8761812301,546623.1982854841,546270.6889236795,546395.2775472733,TASK2
2026-05-26T10:01:27.653+00:00,989,69737,212400.3350615901,188672.84073505888,545610.4630959586,545665.314276852,194584.09483243167,546628.0262622865,546275.5169004818,546400.1055240757,TASK2
2026-05-26T10:01:27.653+00:00,989,69738,212401.6761662574,188678.20515372817,545611.804200626,545666.6553815192,194584.89949523206,546629.3673669538,546276.8580051492,546401.1784078096,TASK2
2026-05-26T10:01:27.653+00:00,989,69739,212401.94438719086,188683.97190379762,545606.3727267233,545661.8274047169,194585.30182663226,546624.9417215516,546271.3594760131,546396.3504310072,TASK2
2026-05-26T10:01:27.653+00:00,989,69740,212400.40211682345,188684.776566598,545596.5156074185,545651.7020644787,194582.95489346446,546615.0846022469,546261.5023567083,546386.4933117024,TASK2
2026-05-26T10:01:27.653+00:00,989,69741,212401.47500055732,188682.69785436368,545590.6818021156,545645.8682591758,194580.8761812301,546609.250796944,546255.1321095385,546380.6595063995,TASK2
2026-05-26T10:01:27.653+00:00,989,69742,212402.81610522463,188679.81447932892,545590.6818021156,545646.4047010428,194581.412623097,546609.250796944,546255.1321095385,546380.6595063995,TASK2
2026-05-26T10:01:27.653+00:00,989,69743,212404.96187269234,188679.61331362886,545592.022906783,545647.4775847766,194583.55839056475,546610.5919016113,546256.7414351393,546382.0006110669,TASK2
2026-05-26T10:01:27.653+00:00,989,69744,212406.30297735965,188682.56374389693,545586.1891014802,545641.3755585403,194584.89949523206,546604.7580963084,546250.9076298365,546376.1668057641,TASK2
2026-05-26T10:01:27.653+00:00,989,69745,212405.8335907261,188685.51417416503,545576.3319821754,545631.786660169,194585.43593709898,546594.9009770037,546241.3187314651,546366.3096864593,TASK2
2026-05-26T10:01:27.653+00:00,989,69746,212406.90647445995,188684.50834566457,545571.8392815399,545627.562180467,194585.9723789659,546590.4082763682,546236.8260308297,546361.8169858238,TASK2
2026-05-26T10:01:27.653+00:00,989,69747,212412.27089312923,188683.50251716407,545574.5214908745,545630.2443898015,194589.7274720344,546592.5540438358,546239.2400192309,546364.230974225,TASK2
2026-05-26T10:01:27.653+00:00,989,69748,212417.90353273196,188683.0331305305,545576.3990374088,545632.1219363358,194592.40968136903,546594.6998113036,546241.117565765,546366.3767416927,TASK2
2026-05-26T10:01:27.653+00:00,989,69749,212420.04930019967,188682.56374389693,545570.2970111724,545625.7516891661,194591.1356319351,546588.3295641339,546235.0155395288,546360.0064945229,TASK2
2026-05-26T10:01:27.653+00:00,989,69750,212420.04930019967,188681.02147352952,545560.9763337346,545616.4310117282,194589.59336156768,546579.008886696,546225.694862091,546350.685817085,TASK2
2026-05-26T10:01:27.653+00:00,989,69751,212420.31752113314,188683.16724099722,545560.9763337346,545616.4310117282,194589.39219586758,546581.4228750971,546228.3770714256,546353.0998054862,TASK2
2026-05-26T10:01:27.653+00:00,989,69752,212421.65862580045,188688.26343873303,545594.772171351,545650.4950702781,194590.19685866797,546615.2187127136,546262.172909042,546387.1638640361,TASK2
2026-05-26T10:01:27.653+00:00,989,69753,212420.92101823344,188691.4820899346,545604.4281249557,545660.4192448162,194586.50882083282,546622.997119784,546269.683095179,546394.4058292396,TASK2
2026-05-26T10:01:27.653+00:00,989,69754,212419.11052693255,188689.1351567668,545595.9121103182,545651.6350092452,194581.4796783304,546613.9446632796,546260.6306386746,546385.6215936687,TASK2
2026-05-26T10:01:27.653+00:00,989,69755,212417.30003563166,188688.39754919978,545584.1774444792,545639.6321224727,194578.8645242291,546601.9417765071,546248.6277519021,546373.8869278296,TASK2
2026-05-26T10:01:27.653+00:00,989,69756,212418.64114029898,188686.85527883237,545578.0754182428,545633.261875303,194577.59047479517,546596.1079712043,546242.5257256657,546367.7849015933,TASK2
2026-05-26T10:01:27.653+00:00,989,69757,212422.66445430095,188686.85527883237,545578.3436391763,545633.5300962365,194580.80912599675,546596.1079712043,546242.7939465992,546367.7849015933,TASK2
2026-05-26T10:01:27.653+00:00,989,69758,212424.54200083518,188688.46460443313,545579.1483019767,545634.3347590369,194582.15023066406,546596.9126340047,546243.8668303331,546368.8577853271,TASK2
2026-05-26T10:01:27.653+00:00,989,69759,212422.99973046777,188687.7269968661,545574.3873804078,545629.3056165344,194577.65753002855,546591.8834915023,546238.8376878307,546363.8286428248,TASK2
2026-05-26T10:01:27.653+00:00,989,69760,212422.12801243403,188686.25178173208,545564.2620401694,545619.9849390966,194575.71292826094,546582.6298692977,546228.9805685258,546353.8374130533,TASK2
2026-05-26T10:01:27.653+00:00,989,69761,212419.78107926622,188686.788223599,545559.769339534,545615.492238461,194574.70709976045,546578.1371686622,546224.4878678904,546349.6129333512,TASK2
2026-05-26T10:01:27.653+00:00,989,69762,212420.31752113314,188692.42086320173,545562.9879907356,545618.7108896626,194574.9753206939,546581.6240407972,546227.9747400254,546353.0998054862,TASK2
2026-05-26T10:01:27.653+00:00,989,69763,212426.4866026028,188696.98061907061,545564.5973163364,545620.0519943299,194571.8237247257,546582.9651454645,546229.5840656261,546354.709131087,TASK2
2026-05-26T10:01:27.653+00:00,989,69764,212429.97347473784,188698.05350280448,545558.4952901,545613.9499680937,194569.47679155789,546576.8631192283,546222.9455975229,546348.3388839172,TASK2
2026-05-26T10:01:27.653+00:00,989,69765,212433.1921259394,188697.047674304,545547.8335079949,545603.5564069219,194567.66630025703,546566.4695580566,546212.2838154178,546337.9453227455,TASK2
2026-05-26T10:01:27.653+00:00,989,69766,212433.46034687286,188693.35963646884,545573.5827176074,545629.3056165344,194567.93452119047,546599.1925119391,546245.0067693003,546370.668276628,TASK2
2026-05-26T10:01:27.653+00:00,989,69767,212428.69942530387,188684.8436218314,545771.2615455701,545826.7162235638,194562.63715775457,546804.3815260389,546450.1957834001,546575.5890697943,TASK2
2026-05-26T10:01:27.653+00:00,989,69768,212418.57408506563,188668.28097919,545890.888081895,545946.3427598885,194543.66052671202,546912.2063412912,546558.0205986524,546683.4138850467,TASK2
2026-05-26T10:01:27.653+00:00,989,69769,212399.06101215613,188643.40348761124,545864.1330437819,545919.855942709,194522.53812820176,546883.573756644,546529.1197930718,546654.513079466,TASK2
2026-05-26T10:01:27.653+00:00,989,69770,212379.8161601801,188619.59887976633,545834.1593544673,545889.8822533945,194503.29327622574,546853.8682882629,546499.4143246906,546625.0758320184,TASK2
2026-05-26T10:01:27.653+00:00,989,69771,212365.39928500645,188600.62224872378,545816.2556071586,545871.7102851522,194488.33995918513,546835.6963200207,546481.5105773819,546606.6356428427,TASK2
2026-05-26T10:01:27.653+00:00,989,69772,212353.93284010087,188586.74181541704,545809.8853599889,545865.3400379824,194478.48283988034,546829.0578519175,546474.6038883452,546599.9971747395,TASK2
2026-05-26T10:01:27.653+00:00,989,69773,212343.2710579957,188575.8118123784,545805.3926593533,545860.847337347,194472.38081364403,546824.8333722154,546470.1111877097,546595.504474104,TASK2
2026-05-26T10:01:27.653+00:00,989,69774,212336.63258989246,188567.29579774092,545794.7308772482,545849.9173343083,194467.08345020813,546814.4398110437,546459.717626538,546585.1109129323,TASK2
2026-05-26T10:01:27.653+00:00,989,69775,212334.28565672465,188560.92555057115,545781.3868858083,545836.5733428685,194460.71320303838,546800.559377737,546446.1054141647,546571.498700559,TASK2
2026-05-26T10:01:27.653+00:00,989,69776,212332.4751654238,188556.1646290022,545773.4073130378,545828.5937700979,194454.8793977355,546792.0433630995,546437.8576204607,546563.250906855,TASK2
2026-05-26T10:01:27.653+00:00,989,69777,212329.8600113225,188555.1588005017,545771.8650426704,545826.783278797,194450.38669709998,546790.5010927321,546436.3153500933,546561.7086364876,TASK2
2026-05-26T10:01:27.653+00:00,989,69778,212324.5626478866,188556.76812610248,545771.6638769703,545827.0514997306,194446.16221739794,546790.7693136656,546436.5835710268,546561.5074707875,TASK2
2026-05-26T10:01:27.653+00:00,989,69779,212320.606389118,188558.37745170324,545764.4889670002,545819.8765897604,194440.86485396203,546783.3261827619,546428.8722191897,546554.0643398839,TASK2
2026-05-26T10:01:27.653+00:00,989,69780,212319.33233968407,188558.37745170324,545753.0225220945,545808.1419239213,194436.90859519344,546771.8597378563,546417.4057742842,546542.5978949782,TASK2
2026-05-26T10:01:27.653+00:00,989,69781,212320.67344435139,188560.79144010443,545747.4569377252,545802.576339552,194434.8298829591,546766.830595354,546412.6448527151,546537.8369734093,TASK2
2026-05-26T10:01:27.653+00:00,989,69782,212325.23320022025,188562.13254477174,545753.089577328,545808.4772000882,194433.01939165822,546772.4632349566,546417.741050451,546543.7378339455,TASK2
2026-05-26T10:01:27.653+00:00,989,69783,212331.40228168992,188563.47364943908,545752.6201906943,545808.2760343881,194431.4771212908,546771.7256273896,546417.003442884,546543.268447312,TASK2
2026-05-26T10:01:27.655+00:00,989,69784,212335.9620375588,188569.1062890418,545744.9088388573,545800.2964616176,194431.2759555907,546764.282496486,546409.5603119803,546535.2888745414,TASK2
2026-05-26T10:01:27.655+00:00,989,69785,212340.99118006125,188576.2141437786,545736.3928242198,545791.5792812799,194431.94650792435,546755.2300399817,546401.6477944431,546526.5046389705,TASK2
2026-05-26T10:01:27.655+00:00,989,69786,212345.55093593014,188579.96923684707,545730.559018917,545785.7454759772,194429.86779569002,546749.1280137453,546395.2775472733,546520.4026127341,TASK2
2026-05-26T10:01:27.655+00:00,989,69787,212352.52468020018,188586.67476018367,545730.8272398504,545786.2819178441,194427.52086252221,546749.3962346788,546395.5457682068,546520.9390546011,TASK2
2026-05-26T10:01:27.655+00:00,989,69788,212359.49842447025,188593.38028352027,545731.3636817174,545786.5501387775,194426.7832549552,546750.2008974792,546396.6186519407,546521.7437174015,TASK2
2026-05-26T10:01:27.655+00:00,989,69789,212363.5217384722,188597.40359752224,545724.4569926807,545779.6434497408,194427.85613868904,546743.562429376,546389.1755210371,546514.8370283648,TASK2
2026-05-26T10:01:27.655+00:00,989,69790,212366.74038967377,188601.69513245765,545713.5269896421,545768.7134467022,194430.27012709022,546732.3642054038,546377.977297065,546503.9070253262,TASK2
2026-05-26T10:01:27.655+00:00,989,69791,212370.49548274226,188603.57267899188,545706.3520796719,545761.5385367321,194435.36632482603,546725.1892954337,546370.8023870948,546496.4638944225,TASK2
2026-05-26T10:01:27.655+00:00,989,69792,212375.05523861115,188608.6688767277,545707.4249634057,545762.6114204659,194441.26718536223,546726.2621791675,546371.8752708286,546497.2685572229,TASK2
2026-05-26T10:01:27.655+00:00,989,69793,212380.15143634696,188615.9108419312,545707.9614052727,545762.8796413994,194448.24092963227,546726.530400101,546372.4117126956,546497.8049990898,TASK2
2026-05-26T10:01:27.655+00:00,989,69794,212383.3700875485,188620.4705978001,545699.9818325022,545755.1682895622,194455.75111576926,546718.819048264,546364.7003608585,546490.3618681863,TASK2
2026-05-26T10:01:27.655+00:00,989,69795,212385.24763408277,188622.34814433433,545689.8564922638,545745.042949324,194459.5062088378,546708.4254870922,546354.3067996867,546479.9683070146,TASK2
2026-05-26T10:01:27.655+00:00,989,69796,212389.80738995163,188625.5667955359,545700.0488877355,545754.6989029287,194463.26130190628,546722.9094174992,546368.5225091603,546494.184016488,TASK2
2026-05-26T10:01:27.655+00:00,989,69797,212397.04935515515,188629.05366767093,545795.5355400486,545850.1855552418,194465.67529030744,546821.0782791469,546466.4231498746,546592.3528781357,TASK2
2026-05-26T10:01:27.655+00:00,989,69798,212400.26800635672,188627.779618237,545831.7453660661,545886.1271603259,194460.91436873848,546850.8508027614,546496.4638944225,546622.6618436172,TASK2
2026-05-26T10:01:27.655+00:00,989,69799,212397.65285225544,188621.40937106722,545813.8416187575,545868.7598548841,194456.15344716946,546832.6788345192,546478.0237052469,546604.2216544416,TASK2
2026-05-26T10:01:27.655+00:00,989,69800,212396.3788028215,188613.9662401636,545794.5967667814,545849.5150029081,194452.7336302678,546813.1657616098,546458.5106323374,546584.7085815321,TASK2
2026-05-26T10:01:27.655+00:00,989,69801,212397.71990748882,188607.32777206038,545782.8621009424,545837.5121161357,194447.70448776535,546801.4310957707,546446.7759664984,546572.7056947596,TASK2
2026-05-26T10:01:27.655+00:00,989,69802,212400.9385586904,188603.3715132918,545780.2469468411,545834.8969620344,194444.01644993023,546798.8159416695,546444.1608123971,546570.3587615917,TASK2
2026-05-26T10:01:27.655+00:00,989,69803,212403.8889889585,188603.9079551587,545778.7046764737,545833.3546916669,194443.81528423014,546797.5418922355,546442.8867629631,546568.8164912243,TASK2
2026-05-26T10:01:27.655+00:00,989,69804,212406.57119829312,188605.5172807595,545769.1157781024,545823.4975723622,194450.52080756673,546787.9529938642,546433.0296436583,546559.227592853,TASK2
2026-05-26T10:01:27.655+00:00,989,69805,212409.25340762775,188607.93126916068,545755.2353447956,545810.1535809223,194457.76277277025,546774.0725605574,546418.8809894181,546545.3471595463,TASK2
2026-05-26T10:01:27.655+00:00,989,69806,212414.88604723048,188609.8088156949,545746.7193301582,545801.6375662849,194461.2496449053,546765.55654592,546410.6331957141,546537.0993658423,TASK2
2026-05-26T10:01:27.655+00:00,989,69807,212422.9326752344,188611.4181412957,545746.2499435246,545801.1681796513,194467.68694730842,546765.3553802199,546410.6331957141,546536.8982001422,TASK2
2026-05-26T10:01:27.655+00:00,989,69808,212427.76065203676,188613.5639087634,545746.5181644581,545801.1681796513,194477.34290091312,546765.6236011534,546410.6331957141,546536.8982001422,TASK2
2026-05-26T10:01:27.655+00:00,989,69809,212432.32040790564,188615.9778971646,545738.2703707541,545793.1886068807,194480.29333118122,546757.3758074493,546402.6536229436,546528.9186273717,TASK2
2026-05-26T10:01:27.655+00:00,989,69810,212434.7343963068,188617.58722276537,545725.7310421147,545780.6492782413,194479.28750268073,546744.83647881,546390.1142943042,546516.1110777988,TASK2
2026-05-26T10:01:27.655+00:00,989,69811,212437.95304750837,188620.00121116653,545720.7018996122,545775.083693872,194479.5557236142,546739.539115374,546384.8169308683,546510.8137143628,TASK2
2026-05-26T10:01:27.655+00:00,989,69812,212444.52446037822,188626.84084496988,545723.3170537135,545778.2352898401,194484.51781088326,546742.1542694753,546388.5049687034,546513.2947579974,TASK2
2026-05-26T10:01:27.655+00:00,989,69813,212448.01133251327,188629.25483337103,545724.3899374473,545779.5763945074,194487.73646208484,546743.2271532092,546389.5778524373,546514.3676417313,TASK2
2026-05-26T10:01:27.655+00:00,989,69814,212451.4982046483,188625.5667955359,545716.9468065437,545772.4014845373,194489.88222955255,546736.3204641724,546382.4029424671,546507.192731761,TASK2
2026-05-26T10:01:27.655+00:00,989,69815,212452.57108838213,188622.68342050118,545705.2121407046,545760.3985977648,194491.22333421986,546724.0493564665,546370.1318347611,546494.9216240551,TASK2
2026-05-26T10:01:27.655+00:00,989,69816,212452.57108838213,188624.29274610194,545698.5736726015,545753.7601296616,194496.05131102222,546717.1426674298,546363.4933666579,546488.5513768854,TASK2
2026-05-26T10:01:27.655+00:00,989,69817,212456.32618145063,188628.85250197083,545698.1042859679,545753.0225220945,194500.87928782456,546716.9415017297,546363.2922009578,546488.3502111853,TASK2
2026-05-26T10:01:27.655+00:00,989,69818,212462.76348385375,188630.46182757162,545697.6348993343,545752.553135461,194503.82971809266,546716.472115096,546362.8228143243,546487.8808245517,TASK2
2026-05-26T10:01:27.655+00:00,989,69819,212467.32323972264,188628.65133627073,545690.996431231,545746.1828882912,194509.9987995623,546709.8336469929,546356.184346221,546481.2423564484,TASK2
2026-05-26T10:01:27.655+00:00,989,69820,212468.12790252303,188627.91372870372,545679.261765392,545734.1800015187,194518.04542756622,546697.8307602204,546344.1814594485,546469.2394696759,TASK2
2026-05-26T10:01:27.655+00:00,989,69821,212468.3961234565,188629.25483337103,545672.0868554219,545727.0050915485,194525.28739276977,546690.6558502503,546337.0065494784,546462.0645597058,TASK2
2026-05-26T10:01:27.655+00:00,989,69822,212471.07833279113,188629.25483337103,545674.2326228896,545728.8826380828,194534.675125441,546692.801617718,546339.1523169461,546464.2103271735,TASK2
2026-05-26T10:01:27.655+00:00,989,69823,212474.2969839927,188630.3277171049,545675.8419484904,545731.0284055505,194543.79463717874,546694.9473851856,546341.0298634804,546466.0878737078,TASK2
2026-05-26T10:01:27.655+00:00,989,69824,212475.90630959347,188629.59010953785,545669.4717013206,545724.6581583808,194549.42727678147,546688.5771380159,546334.6596163106,546459.717626538,TASK2
2026-05-26T10:01:27.655+00:00,989,69825,212475.43692295993,188629.1207229043,545657.2005936147,545712.1188297414,194554.25525358383,546676.3060303099,546322.3885086046,546447.446518832,TASK2
2026-05-26T10:01:27.655+00:00,989,69826,212477.31446949416,188630.46182757162,545654.5854395134,545709.2354547066,194558.54678851925,546675.3002018094,546321.3826801041,546446.708911265,TASK2
2026-05-26T10:01:27.977+00:00,990,69827,212481.87422536305,188630.99826943854,545685.9672887287,545740.8855248553,194559.61967225312,546708.023155692,546353.8374130533,546479.1636442142,TASK2
2026-05-26T10:01:27.977+00:00,990,69828,212488.31152776617,188630.528882805,545700.4512191357,545755.3694552623,194557.00451815184,546719.8248767644,546365.907355059,546491.23358622,TASK2
2026-05-26T10:01:27.977+00:00,990,69829,212493.13950456853,188629.25483337103,545688.4483323632,545743.3665684899,194553.85292218364,546707.5537690584,546353.9044682865,546478.9624785141,TASK2
2026-05-26T10:01:27.977+00:00,990,69830,212495.01705110277,188625.030353669,545674.0314571895,545729.2179142496,194551.23776808236,546692.8686729514,546339.4875931129,546464.2773824069,TASK2
2026-05-26T10:01:27.977+00:00,990,69831,212499.8450279051,188623.2198623681,545665.2472216185,545720.4336786787,194551.03660238226,546684.0844373803,546330.4351366085,546455.493146836,TASK2
2026-05-26T10:01:27.977+00:00,990,69832,212507.62343497557,188623.018696668,545663.9731721847,545719.4278501782,194554.25525358383,546683.6150507468,546329.965749975,546455.0237602023,TASK2
2026-05-26T10:01:27.977+00:00,990,69833,212512.4514117779,188621.74464723404,545663.9731721847,545719.2266844781,194558.54678851925,546683.4138850467,546329.965749975,546454.8225945022,TASK2
2026-05-26T10:01:27.977+00:00,990,69834,212516.74294671332,188617.78838846547,545657.0664831479,545712.051774508,194561.22899785388,546675.9707541431,546322.7908400048,546447.9159054656,TASK2
2026-05-26T10:01:27.977+00:00,990,69835,212519.1569351145,188617.3190018319,545644.258933575,545699.2442249351,194562.83832345466,546662.8949836367,546309.7150694984,546434.5719140258,TASK2
2026-05-26T10:01:27.977+00:00,990,69836,212522.37558631608,188618.9283274327,545637.8886864053,545692.8739777653,194564.98409092237,546656.5247364669,546303.0766013953,546428.2016668561,TASK2
2026-05-26T10:01:27.977+00:00,990,69837,212527.2035631184,188621.61053676732,545638.1569073388,545693.1421986988,194566.59341652316,546657.0611783339,546303.3448223287,546428.4698877895,TASK2
2026-05-26T10:01:27.977+00:00,990,69838,212531.49509805383,188622.95164143463,545638.6933492057,545693.9468614992,194570.6167305251,546657.8658411343,546304.149485129,546429.2745505898,TASK2
2026-05-26T10:01:27.977+00:00,990,69839,212534.98197018885,188621.14115013377,545632.3231020359,545687.5766143295,194573.83538172668,546651.4955939646,546298.0474588928,546422.9043034201,TASK2
2026-05-26T10:01:27.977+00:00,990,69840,212540.6146097916,188620.6717635002,545620.8566571303,545676.1101694239,194572.82955322618,546639.7609281255,546286.5810139872,546411.4378585145,TASK2
2026-05-26T10:01:27.977+00:00,990,69841,212547.58835406165,188621.20820536712,545616.3639564948,545671.8856897218,194570.75084099185,546635.5364484234,546282.0883133517,546407.2133788125,TASK2
2026-05-26T10:01:27.977+00:00,990,69842,212554.83031926517,188620.20237686663,545622.264817031,545677.786550258,194570.28145435828,546641.1690880262,546287.452732021,546412.8460184152,TASK2
2026-05-26T10:01:27.977+00:00,990,69843,212565.49210137036,188622.0799234009,545625.0811368324,545680.4687595926,194572.89660845956,546643.717186894,546290.0008308889,546415.2600068164,TASK2
2026-05-26T10:01:27.977+00:00,990,69844,212567.90608977154,188621.34231583387,545618.4426687291,545673.2938496225,194575.31059686074,546636.5422769239,546283.0941418521,546407.8168759128,TASK2
2026-05-26T10:01:27.977+00:00,990,69845,212566.90026127105,188620.0682663999,545606.1715610232,545661.29096285,194580.67501553,546624.271169218,546270.8230341462,546395.5457682068,TASK2
2026-05-26T10:01:27.977+00:00,990,69846,212568.24136593836,188620.33648733338,545599.53309292,545654.9207156802,194586.03943419928,546618.1691429816,546264.7210079099,546389.4437419705,TASK2
2026-05-26T10:01:27.977+00:00,990,69847,212570.38713340607,188623.018696668,545599.53309292,545654.9207156802,194588.45342260046,546618.4373639151,546264.9892288434,546389.4437419705,TASK2
2026-05-26T10:01:27.977+00:00,990,69848,212574.14222647456,188626.7737897365,545600.3377557204,545655.7253784806,194590.59919006817,546618.973805782,546265.5256707103,546389.9801838375,TASK2
2026-05-26T10:01:27.977+00:00,990,69849,212579.7748660773,188628.9195572042,545593.9675085506,545649.3551313109,194593.54962033627,546612.6035586123,546259.423644474,546383.8781576011,TASK2
2026-05-26T10:01:27.977+00:00,990,69850,212582.7252963454,188628.9195572042,545583.037505512,545638.4251282722,194598.3775971386,546601.6735555737,546248.7618623688,546373.216375496,TASK2
2026-05-26T10:01:27.977+00:00,990,69851,212583.2617382123,188630.528882805,545578.0083630095,545633.6642067032,194605.35134140865,546596.9126340047,546243.7327198663,546367.91901206,TASK2
2026-05-26T10:01:27.977+00:00,990,69852,212585.94394754697,188635.6250805408,545579.3494676768,545635.0053113706,194612.5933066122,546598.5219596055,546245.3420454671,546369.2601167273,TASK2
2026-05-26T10:01:27.977+00:00,990,69853,212588.08971501468,188639.64839454275,545580.9587932776,545636.3464160379,194617.42128341453,546599.5948433393,546246.6831501345,546370.8694423281,TASK2
2026-05-26T10:01:27.977+00:00,990,69854,212590.23548248239,188640.45305734314,545576.1978717087,545631.8537154023,194621.98103928342,546595.3703636372,546242.190449499,546366.3767416927,TASK2
2026-05-26T10:01:27.977+00:00,990,69855,212590.7719243493,188639.44722884265,545565.2678686699,545620.6554914302,194623.59036488418,546584.1721396651,546230.7240045933,546354.910296787,TASK2
2026-05-26T10:01:27.977+00:00,990,69856,212586.8156655807,188637.10029567484,545581.8975665447,545637.285189305,194622.31631545024,546606.1662562091,546253.2545630044,546377.1726342646,TASK2
2026-05-26T10:01:27.977+00:00,990,69857,212580.44541841096,188634.4851415736,545722.7135566132,545778.1011793735,194616.75073108086,546751.81022308,546398.6303089416,546522.8166011353,TASK2
2026-05-26T10:01:27.977+00:00,990,69858,212570.8565200396,188624.09158040187,545794.0603249145,545849.7161686082,194603.40673964104,546814.5739215105,546461.6622283056,546585.8485204993,TASK2
2026-05-26T10:01:27.977+00:00,990,69859,212556.17142393248,188607.260716827,545772.6697054708,545828.3255491644,194590.8674110016,546791.8421973994,546439.1987251281,546563.1167963883,TASK2
2026-05-26T10:01:27.977+00:00,990,69860,212543.3638743596,188590.1616323187,545749.1333185594,545805.0573831865,194577.5234195618,546768.0375895546,546415.6623382166,546539.3121885434,TASK2
2026-05-26T10:01:27.977+00:00,990,69861,212534.04319692173,188574.67187341116,545734.9846643191,545790.6405080128,194562.57010252122,546753.8889353143,546401.5136839764,546525.1635343032,TASK2
2026-05-26T10:01:27.977+00:00,990,69862,212526.60006601812,188564.54653317292,545730.7601846171,545786.1478073773,194553.78586695026,546749.6644556122,546397.0209833409,546521.2072755345,TASK2
2026-05-26T10:01:27.977+00:00,990,69863,212521.3027025822,188556.5669604024,545727.8768095823,545783.2644323426,194546.87917791356,546747.049301511,546393.8693873726,546518.3239004998,TASK2
2026-05-26T10:01:27.977+00:00,990,69864,212517.2123333469,188550.263768466,545720.1654577453,545775.4860252722,194538.5643289762,546739.1367839738,546385.3533727352,546510.5454934294,TASK2
2026-05-26T10:01:27.977+00:00,990,69865,212511.37852804406,188543.08885849582,545708.4307919062,545764.0195803666,194527.63432593757,546727.1338972013,546373.6187068962,546498.8108275903,TASK2
2026-05-26T10:01:27.977+00:00,990,69866,212509.03159487626,188540.2054834611,545700.4512191357,545756.040007596,194519.38653223356,546719.1543244307,546365.3709131922,546490.5630338864,TASK2
2026-05-26T10:01:27.977+00:00,990,69867,212508.83042917616,188540.2054834611,545700.2500534356,545755.8388418959,194514.62561066457,546719.1543244307,546365.3709131922,546490.3618681863,TASK2
2026-05-26T10:01:27.977+00:00,990,69868,212506.21527507488,188538.3949921602,545701.054716236,545756.9117256298,194512.0104565633,546720.495429098,546366.7120178594,546491.43475192,TASK2
2026-05-26T10:01:27.977+00:00,990,69869,212503.86834190707,188535.243396192,545694.4162481327,545750.0050365931,194508.32241872817,546713.8569609949,546360.0735497562,546484.7962838168,TASK2
2026-05-26T10:01:27.977+00:00,990,69870,212500.18030407195,188533.7011258246,545681.6086985598,545736.9292660868,194501.68395062495,546700.7811904885,546346.7295583164,546471.7205133105,TASK2
2026-05-26T10:01:27.977+00:00,990,69871,212500.98496687235,188532.42707639065,545685.9002334953,545741.2208010221,194495.85014532213,546708.5595975589,546354.5079653868,546479.2306994474,TASK2
2026-05-26T10:01:27.977+00:00,990,69872,212503.93539714045,188529.27548042245,545755.3694552623,545810.6900227893,194489.74811908582,546779.3699239934,546425.3182918213,546550.0410258819,TASK2
2026-05-26T10:01:27.977+00:00,990,69873,212504.2036180739,188523.97811698655,545777.3635718063,545832.4159183998,194483.1096509826,546796.8042846685,546442.7526524964,546567.2071656235,TASK2
2026-05-26T10:01:27.977+00:00,990,69874,212500.2473593053,188515.99854421598,545763.2149175662,545818.535485093,194476.73940381283,546782.3874094948,546428.6039982563,546553.0585113834,TASK2
2026-05-26T10:01:27.977+00:00,990,69875,212494.68177493595,188508.55541331237,545747.4569377252,545802.777505252,194468.22338917534,546766.3612087204,546412.8460184152,546537.3005315424,TASK2
2026-05-26T10:01:27.977+00:00,990,69876,212488.31152776617,188504.06271267685,545738.4044812208,545793.4568278142,194458.63449080402,546757.5769731494,546403.5253409774,546527.9798541045,TASK2
2026-05-26T10:01:27.977+00:00,990,69877,212486.23281553184,188501.17933764213,545736.057548053,545790.841673713,194453.60534830156,546754.6935981147,546400.9101868761,546525.3647000032,TASK2
2026-05-26T10:01:27.977+00:00,990,69878,212486.76925739876,188496.1501951397,545734.783498619,545789.8358452125,194456.55577856966,546753.6877696142,546400.1725793091,546524.6270924362,TASK2
2026-05-26T10:01:27.977+00:00,990,69879,212484.95876609787,188493.26682010494,545727.3403677155,545782.3927143088,194460.0426507047,546746.2446387106,546392.7294484054,546517.1839615325,TASK2
2026-05-26T10:01:27.977+00:00,990,69880,212480.73428639583,188493.26682010494,545715.0692600094,545770.1216066029,194458.23215940382,546733.7053100711,546379.653677899,546504.3764119596,TASK2
2026-05-26T10:01:27.977+00:00,990,69881,212475.70514389337,188495.41258757265,545707.3579081724,545762.4102547658,194456.68988903638,546725.7257373006,546371.6741051285,546496.6650601226,TASK2
2026-05-26T10:01:27.977+00:00,990,69882,212475.70514389337,188499.97234344154,545707.6261291058,545762.6784756993,194456.95810996986,546725.7257373006,546372.2105469955,546496.6650601226,TASK2
2026-05-26T10:01:27.977+00:00,990,69883,212478.11913229455,188506.67786677813,545708.9672337732,545763.7513594332,194459.908540238,546727.0668419679,546373.2834307293,546497.7379438565,TASK2
2026-05-26T10:01:27.977+00:00,990,69884,212478.38735322803,188511.50584358047,545703.1334284703,545757.9175541303,194464.46829610688,546721.5012575985,546367.7178463599,546492.1723594872,TASK2
2026-05-26T10:01:27.977+00:00,990,69885,212475.77219912675,188512.57872731434,545691.9352044982,545746.7193301582,194467.68694730842,546709.7665917595,546356.2514014543,546480.437693648,TASK2
2026-05-26T10:01:27.977+00:00,990,69886,212473.96170782586,188514.72449478204,545685.8331782619,545740.3490829885,194470.90559851,546703.3963445898,546349.8811542846,546474.0674464783,TASK2
2026-05-26T10:01:27.977+00:00,990,69887,212475.03459155973,188517.13848318323,545688.7836085301,545743.5677341899,194477.07467997965,546706.6149957913,546352.8315845528,546477.2860976799,TASK2
2026-05-26T10:01:27.977+00:00,990,69888,212476.10747529357,188519.01602971746,545691.7340387981,545746.5181644581,194480.29333118122,546709.5654260594,546355.7820148208,546480.5047488814,TASK2
2026-05-26T10:01:27.977+00:00,990,69889,212477.11330379406,188521.497073352,545687.1742829293,545742.4277952227,194480.02511024775,546705.6762225241,546351.6245903522,546477.2190424465,TASK2
2026-05-26T10:01:27.977+00:00,990,69890,212475.57103342665,188522.30173615238,545675.7078380237,545730.9613503172,194482.97554051585,546694.477998552,546340.4263663801,546466.0208184744,TASK2
2026-05-26T10:01:27.977+00:00,990,69891,212475.1016467931,188522.83817801933,545669.6058117873,545724.8593240809,194486.19419171743,546688.1077513823,546334.0561192103,546459.6505713046,TASK2
2026-05-26T10:01:27.977+00:00,990,69892,212473.02293455874,188523.64284081972,545671.2151373881,545726.4686496817,194485.72480508385,546689.9852979166,546335.9336657445,546461.5281178389,TASK2
2026-05-26T10:01:27.977+00:00,990,69893,212472.82176885864,188523.91106175317,545674.9702304567,545729.9555218167,194486.26124695077,546693.4721700517,546339.1523169461,546464.478548107,TASK2
2026-05-26T10:01:27.977+00:00,990,69894,212476.04042006022,188522.63701231923,545670.2093088876,545725.1946002477,194487.60235161812,546688.4430275492,546334.3913953771,546459.717626538,TASK2
2026-05-26T10:01:27.977+00:00,990,69895,212477.91796659445,188521.09474195182,545658.4746430486,545713.4599344087,194487.87057255156,546676.9765826436,546322.9249504715,546448.5194025659,TASK2
2026-05-26T10:01:27.977+00:00,990,69896,212478.45440846137,188524.0451722199,545650.7632912116,545705.7485825716,194487.66940685146,546669.2652308065,546315.4818195679,546440.8080507288,TASK2
2026-05-26T10:01:27.977+00:00,990,69897,212477.4485799609,188528.60492808878,545650.293904578,545705.279195938,194489.81517431917,546668.795844173,546315.0124329344,546440.0704431618,TASK2
2026-05-26T10:01:27.977+00:00,990,69898,212475.36986772655,188532.8964630242,545650.5621255115,545705.5474168715,194494.91137205498,546669.0640651064,546315.0124329344,546440.0704431618,TASK2
2026-05-26T10:01:27.977+00:00,990,69899,212474.0958182926,188532.42707639065,545644.1918783417,545699.1771697018,194500.81223259118,546662.6938179366,546308.6421857646,546433.700195992,TASK2
2026-05-26T10:01:27.977+00:00,990,69900,212472.82176885864,188529.81192228937,545632.1889915692,545687.4425038627,194504.29910472623,546650.6909311642,546296.6392989921,546421.965530153,TASK2
2026-05-26T10:01:27.977+00:00,990,69901,212469.13373102352,188528.80609378888,545627.9645118671,545682.9498032272,194504.56732565968,546648.0757770629,546293.7559239573,546419.0821551182,TASK2
2026-05-26T10:01:28.348+00:00,991,69902,212465.71391412185,188529.87897752275,545653.9819424131,545708.6990128397,194505.37198846007,546674.6296494758,546320.3097963702,546445.6360275311,TASK2
2026-05-26T10:01:28.348+00:00,991,69903,212459.07544601863,188531.48830312354,545667.6612100197,545722.6465013798,194505.17082275997,546685.6267077478,546331.5750755757,546456.6330858031,TASK2
2026-05-26T10:01:28.348+00:00,991,69904,212452.4369779154,188531.48830312354,545659.1451953823,545714.1304867424,194500.409901191,546676.8424721769,546323.0590609383,546448.1170711657,TASK2
2026-05-26T10:01:28.348+00:00,991,69905,212446.3349516791,188530.7506955565,545645.2647620755,545700.2500534356,194497.52652615626,546663.498480737,546309.1786276315,546434.5048587924,TASK2
2026-05-26T10:01:28.348+00:00,991,69906,212438.62359984202,188530.7506955565,545636.2123055712,545691.4658178646,194495.98425578885,546654.714245166,546300.1261711271,546425.7206232215,TASK2
2026-05-26T10:01:28.348+00:00,991,69907,212430.37580613804,188532.8964630242,545636.7487474381,545691.7340387981,194495.24664822183,546655.250687033,546300.3943920606,546425.7206232215,TASK2
2026-05-26T10:01:28.348+00:00,991,69908,212425.34666363557,188535.57867235885,545637.285189305,545692.270480665,194496.31953195567,546655.7871289,546300.6626129941,546425.988844155,TASK2
2026-05-26T10:01:28.348+00:00,991,69909,212418.70819553235,188535.10928572528,545631.1831630687,545686.4366753622,194495.58192438865,546649.4168817302,546294.5605867577,546419.8868179186,TASK2
2026-05-26T10:01:28.348+00:00,991,69910,212410.19218089487,188534.6398990917,545620.789601897,545676.0431141905,194492.43032842045,546639.291541492,546284.167025586,546409.7614776804,TASK2
2026-05-26T10:01:28.348+00:00,991,69911,212404.35837559204,188537.85855029328,545613.3464709934,545668.5999832869,194486.06008125067,546631.8484105883,546276.9921156159,546402.0501258433,TASK2
2026-05-26T10:01:28.348+00:00,991,69912,212397.71990748882,188542.1500852287,545612.8770843598,545667.8623757198,194482.1038224821,546631.1108030212,546276.2545080489,546401.3125182763,TASK2
2026-05-26T10:01:28.348+00:00,991,69913,212393.2272068533,188545.1005154968,545614.754630894,545669.4717013206,194478.9522265139,546632.720128622,546277.8638336497,546402.9218438771,TASK2
2026-05-26T10:01:28.348+00:00,991,69914,212391.14849461894,188547.78272483143,545610.2619302585,545664.9790006852,194473.11842121105,546627.9592070531,546273.1029120806,546398.4291432416,TASK2
2026-05-26T10:01:28.348+00:00,991,69915,212387.99689865077,188548.31916669838,545600.1365900203,545655.3901023138,194465.13884844052,546618.6385296152,546263.7822346428,546389.1084658037,TASK2
2026-05-26T10:01:28.348+00:00,991,69916,212385.11352361602,188552.54364640042,545597.521435919,545653.3113900794,194455.885226236,546616.4927621476,546262.5752404422,546387.4320849696,TASK2
2026-05-26T10:01:28.348+00:00,991,69917,212381.4254857809,188555.22585573507,545603.4222964552,545659.2122506156,194447.90565346545,546621.8571808168,546267.9396591114,546392.7965036388,TASK2
2026-05-26T10:01:28.348+00:00,991,69918,212380.4196572804,188554.48824816803,545604.495180189,545660.2851343495,194443.41295282994,546622.6618436172,546269.0125428453,546393.8693873726,TASK2
2026-05-26T10:01:28.348+00:00,991,69919,212378.60916597952,188550.8002103329,545598.3931539528,545654.1831081132,194437.5791475271,546616.5598173809,546263.1787375425,546387.7673611364,TASK2
2026-05-26T10:01:28.348+00:00,991,69920,212373.04358161017,188548.72149809857,545587.7313718476,545643.2531050745,194430.40423755694,546605.8980352757,546252.5169554373,546377.1055790312,TASK2
2026-05-26T10:01:28.348+00:00,991,69921,212367.74621817426,188549.52616089897,545580.5564618774,545635.809974171,194425.3750950545,546598.1866834386,546245.0738245337,546369.930669061,TASK2
2026-05-26T10:01:28.348+00:00,991,69922,212366.20394780685,188552.7448121005,545580.5564618774,545635.809974171,194419.80951068513,546597.9855177385,546245.0738245337,546369.7295033609,TASK2
2026-05-26T10:01:28.348+00:00,991,69923,212365.73456117327,188556.499905169,545582.4340084117,545637.9557416387,194416.38969378348,546600.1312852062,546246.9513710679,546371.3388289617,TASK2
2026-05-26T10:01:28.348+00:00,991,69924,212363.38762800547,188557.57278890288,545577.6730868426,545633.1948200697,194414.04276061567,546595.3703636372,546242.190449499,546366.8461283261,TASK2
2026-05-26T10:01:28.348+00:00,991,69925,212357.8220436361,188558.37745170324,545567.5477466044,545622.5330379645,194411.15938558092,546584.9768024655,546231.7968883272,546356.4525671544,TASK2
2026-05-26T10:01:28.348+00:00,991,69926,212355.47511046828,188559.4503354371,545560.6410575678,545615.8945698612,194407.73956867927,546578.0701134289,546225.158420224,546349.8140990513,TASK2
2026-05-26T10:01:28.348+00:00,991,69927,212356.01155233523,188560.2549982375,545561.4457203682,545616.6992326616,194409.0806733466,546578.8747762293,546225.694862091,546350.6187618517,TASK2
2026-05-26T10:01:28.348+00:00,991,69928,212357.08443606907,188561.8643238383,545563.055045969,545618.3085582624,194413.372208282,546580.48410183,546227.0359667583,546352.2280874525,TASK2
2026-05-26T10:01:28.348+00:00,991,69929,212356.61504943552,188562.4007657052,545558.2941243999,545613.27941576,194413.64042921548,546575.7231802611,546222.0068242558,546346.9307240165,TASK2
2026-05-26T10:01:28.348+00:00,991,69930,212354.2681162677,188559.249169737,545547.6323422948,545602.8858545882,194413.1710425819,546565.3296190894,546211.8814840176,546336.8053837783,TASK2
2026-05-26T10:01:28.348+00:00,991,69931,212353.26228776723,188555.29291096842,545560.2387261676,545615.492238461,194412.4334350149,546582.495758831,546229.0476237593,546354.2397444535,TASK2
2026-05-26T10:01:28.348+00:00,991,69932,212351.45179646634,188549.19088473212,545674.2326228896,545729.2179142496,194407.6725134459,546699.7083067546,546345.9919507494,546470.9158505101,TASK2
2026-05-26T10:01:28.348+00:00,991,69933,212346.95909583083,188538.7973235604,545724.6581583808,545779.6434497408,194399.9611616088,546742.8918770422,546389.1755210371,546513.8311998643,TASK2
2026-05-26T10:01:28.348+00:00,991,69934,212337.90663932642,188524.38044838674,545707.0226320055,545762.2761442991,194388.49471670325,546724.9881297336,546371.2717737283,546495.9274525556,TASK2
2026-05-26T10:01:28.348+00:00,991,69935,212327.24485722123,188509.96357321306,545688.3142218965,545743.5677341899,194373.54139966264,546706.011498691,546352.5633636193,546476.9508215131,TASK2
2026-05-26T10:01:28.348+00:00,991,69936,212317.92417978338,188500.6428957752,545676.5795560575,545731.8330683509,194364.2207222248,546694.5450537854,546341.0969187137,546465.4843766075,TASK2
2026-05-26T10:01:28.348+00:00,991,69937,212309.67638607937,188493.46798580504,545672.6232972888,545727.8768095823,194356.24114945423,546690.5887950169,546337.1406599451,546461.7963387724,TASK2
2026-05-26T10:01:28.348+00:00,991,69938,212302.23325517576,188487.36595956873,545671.6174687883,545726.6027601484,194348.52979761717,546689.0465246495,546335.5983895777,546460.7905102719,TASK2
2026-05-26T10:01:28.348+00:00,991,69939,212296.93589173985,188482.60503799978,545665.2472216185,545720.5007339121,194342.1595504474,546682.6762774797,546329.228142408,546454.420263102,TASK2
2026-05-26T10:01:28.348+00:00,991,69940,212290.56564457007,188482.1356513662,545653.244334846,545708.7660680731,194335.2528614107,546670.9416116406,546317.4934765688,546442.685597263,TASK2
2026-05-26T10:01:28.348+00:00,991,69941,212284.73183926725,188484.2814188339,545644.7283202086,545699.9818325022,194331.02838170866,546662.1573760697,546309.2456828649,546433.9013616921,TASK2
2026-05-26T10:01:28.348+00:00,991,69942,212278.62981303094,188485.0860816343,545644.5271545085,545699.7806668021,194329.21789040777,546662.1573760697,546309.0445171648,546433.700195992,TASK2
2026-05-26T10:01:28.348+00:00,991,69943,212276.81932173006,188484.8849159342,545645.3318173089,545700.8535505359,194329.01672470768,546662.9620388701,546309.5809590317,546434.7730797259,TASK2
2026-05-26T10:01:28.348+00:00,991,69944,212276.3499350965,188484.41552930063,545640.8391166733,545696.0926289669,194328.5473380741,546658.2011173011,546305.0882583961,546430.012158157,TASK2
2026-05-26T10:01:28.348+00:00,991,69945,212272.93011819484,188484.95197116758,545629.9091136347,545685.4308468617,194326.46862583977,546647.8075561294,546294.426476291,546419.0821551182,TASK2
2026-05-26T10:01:28.348+00:00,991,69946,212269.51030129316,188484.95197116758,545623.538866465,545679.0605996919,194325.19457640583,546641.4373089597,546288.3244500547,546412.7119079485,TASK2
2026-05-26T10:01:28.348+00:00,991,69947,212270.51612979366,188488.57295376933,545627.2269043002,545682.6815822937,194331.02838170866,546645.728843895,546291.8113221898,546416.5340562504,TASK2
2026-05-26T10:01:28.348+00:00,991,69948,212271.32079259405,188490.4505003036,545628.5680089674,545684.2909078945,194337.1974631783,546647.3381694958,546293.4206477905,546418.1433818511,TASK2
2026-05-26T10:01:28.348+00:00,991,69949,212270.8514059605,188492.86448870474,545622.4659827311,545677.6524397912,194343.63476558146,546641.2361432596,546287.0504006208,546411.7731346814,TASK2
2026-05-26T10:01:28.348+00:00,991,69950,212266.358705325,188496.61958177324,545612.8770843598,545668.0635414199,194347.92630051688,546631.3790239547,546277.193281316,546402.1842363101,TASK2
2026-05-26T10:01:28.348+00:00,991,69951,212264.27999309063,188500.91111670865,545606.7750581235,545662.2297361171,194349.8038470511,546625.5452186519,546271.3594760131,546396.3504310072,TASK2
2026-05-26T10:01:28.348+00:00,991,69952,212267.76686522565,188507.88486097872,545607.5797209239,545663.302619851,194353.29071918613,546626.3498814523,546272.432359747,546396.8868728741,TASK2
2026-05-26T10:01:28.348+00:00,991,69953,212272.32662109454,188511.63995404722,545610.2619302585,545665.7166082521,194358.6551378554,546628.7638698535,546274.8463481482,546399.3008612753,TASK2
2026-05-26T10:01:28.348+00:00,991,69954,212272.59484202802,188512.4446168476,545604.1599040222,545659.6145820158,194362.14200999044,546622.6618436172,546268.7443219118,546393.198835039,TASK2
2026-05-26T10:01:28.348+00:00,991,69955,212272.59484202802,188511.43878834712,545593.498121917,545648.9527999107,194362.14200999044,546612.000061512,546258.3507607401,546382.8052738673,TASK2
2026-05-26T10:01:28.348+00:00,991,69956,212276.08171416304,188510.16473891315,545588.4689794146,545643.6554364747,194362.4102309239,546606.9709190095,546253.0533973043,546377.5079104314,TASK2
2026-05-26T10:01:28.348+00:00,991,69957,212279.03214443114,188509.96357321306,545589.0054212816,545644.1918783417,194361.40440242342,546607.5073608765,546253.5898391712,546378.0443522983,TASK2
2026-05-26T10:01:28.348+00:00,991,69958,212282.25079563272,188510.76823601345,545591.6876306161,545646.6058667429,194359.862132056,546609.9213492776,546256.0038275723,546380.4583406994,TASK2
2026-05-26T10:01:28.348+00:00,991,69959,212285.20122590082,188510.76823601345,545587.9995927811,545643.1860498412,194359.39274542243,546606.2333114425,546252.3157897372,546376.5020819309,TASK2
2026-05-26T10:01:28.348+00:00,991,69960,212286.00588870118,188511.57289881384,545577.8742525427,545633.0607096029,194359.6609663559,546595.8397502708,546241.654007632,546366.1085207592,TASK2
2026-05-26T10:01:28.348+00:00,991,69961,212285.26828113417,188510.03062844643,545575.527319375,545630.7137764351,194361.00207102322,546595.6385845707,546241.654007632,546365.907355059,TASK2
2026-05-26T10:01:28.348+00:00,991,69962,212284.53067356715,188509.56124181286,545617.3697849953,545672.288021122,194365.83004782556,546639.3585967253,546285.3740197866,546409.6273672136,TASK2
2026-05-26T10:01:28.348+00:00,991,69963,212284.53067356715,188507.48252957853,545643.6554364747,545698.5736726015,194368.5122571602,546662.1573760697,546307.9045781975,546432.1579256246,TASK2
2026-05-26T10:01:28.348+00:00,991,69964,212283.79306600013,188502.989828943,545635.6758637042,545690.594099831,194366.1653239924,546653.6413614323,546299.3885635601,546423.9101319206,TASK2
2026-05-26T10:01:28.348+00:00,991,69965,212277.95926069727,188498.76534924094,545620.7225466636,545675.6407827903,194362.2090652238,546638.4198234582,546284.4352465195,546408.6885939465,TASK2
2026-05-26T10:01:28.348+00:00,991,69966,212269.71146699326,188494.004427672,545612.4747529596,545667.3929890863,194358.25280645522,546630.1720297541,546276.1874528155,546400.709021176,TASK2
2026-05-26T10:01:28.348+00:00,991,69967,212266.82809195854,188486.56129676837,545611.7371453926,545666.9236024527,194355.3694314205,546629.7026431207,546275.7180661819,546400.5078554759,TASK2
2026-05-26T10:01:28.348+00:00,991,69968,212268.77269372615,188484.1473083672,545613.1453052933,545668.6670385202,194355.7047075873,546631.3790239547,546277.5956127162,546402.8547886437,TASK2
2026-05-26T10:01:28.348+00:00,991,69969,212271.18668212733,188479.65460773167,545608.1161627908,545663.6378960178,194350.4073441514,546626.6181023858,546272.5664702137,546397.8256461413,TASK2
2026-05-26T10:01:28.348+00:00,991,69970,212272.79600772812,188474.6254652292,545597.4543806856,545652.7078929791,194341.89132951392,546615.6880993472,546261.6364671751,546386.6274221692,TASK2
2026-05-26T10:01:28.348+00:00,991,69971,212273.33244959504,188468.79165992638,545589.7430288485,545644.9965411421,194337.66684981188,546608.2449684435,546254.461557205,546379.452512199,TASK2
2026-05-26T10:01:28.348+00:00,991,69972,212273.86889146196,188462.68963369008,545591.3523544493,545646.3376458094,194336.39280037791,546609.5860731108,546255.8026618722,546381.0618377997,TASK2
2026-05-26T10:01:28.348+00:00,991,69973,212274.67355426235,188457.12404932073,545594.034563784,545648.7516342106,194336.19163467782,546611.7318405785,546257.9484293399,546383.2076052675,TASK2
2026-05-26T10:01:28.348+00:00,991,69974,212273.66772576186,188454.50889521945,545588.737200348,545643.7224917081,194335.18580617735,546606.7026980761,546252.9192868375,546377.9102418316,TASK2
2026-05-26T10:01:28.348+00:00,991,69975,212270.78435072713,188450.01619458394,545578.8800810432,545634.1335933368,194332.57065207607,546597.1137997048,546243.3303884661,546368.0531225267,TASK2
2026-05-26T10:01:28.348+00:00,991,69976,212266.29165009162,188447.1328195492,545603.019965055,545658.2734773485,194327.0050677067,546627.6909861197,546273.907574881,546398.3620880082,TASK2
2026-05-26T10:01:28.675+00:00,992,69977,212260.18962385532,188444.51766544793,545760.1974320647,545815.4509443583,194317.68439026884,546787.0142205971,546433.2308093584,546557.6853224856,TASK2
2026-05-26T10:01:28.675+00:00,992,69978,212250.86894641747,188436.5380926774,545806.063211687,545861.0485030471,194301.12174762745,546824.8333722154,546470.7817400434,546595.7726950374,TASK2
2026-05-26T10:01:28.675+00:00,992,69979,212238.06139684457,188422.65765937063,545784.6725922433,545839.3896626699,194285.63198871992,546802.9063109048,546448.8546787327,546573.8456337268,TASK2
2026-05-26T10:01:28.675+00:00,992,69980,212226.32673100554,188407.9725632635,545763.2819727996,545818.2672641596,194269.87400887892,546780.9792495942,546427.464059289,546552.1867933496,TASK2
2026-05-26T10:01:28.675+00:00,992,69981,212214.32384423303,188394.62857182368,545748.0604348255,545803.313947119,194255.99357557218,546766.294153487,546412.5107422484,546537.233476309,TASK2
2026-05-26T10:01:28.675+00:00,992,69982,212205.00316679516,188381.55280131733,545742.7630713896,545797.7483627496,194246.94111906778,546761.2650109845,546407.4815997459,546532.2043338065,TASK2
2026-05-26T10:01:28.675+00:00,992,69983,212197.2918149581,188370.08635641175,545739.0750335545,545794.0603249145,194242.18019749882,546757.5769731494,546403.7935619109,546528.248075038,TASK2
2026-05-26T10:01:28.675+00:00,992,69984,212189.580463121,188363.44788830852,545731.3636817174,545786.6171940109,194236.34639219596,546749.8656213123,546396.0822100737,546520.5367232009,TASK2
2026-05-26T10:01:28.675+00:00,992,69985,212185.35598341894,188358.68696673954,545719.0925740114,545774.0778653715,194229.70792409274,546737.5945136064,546383.8111023678,546508.5338364284,TASK2
2026-05-26T10:01:28.675+00:00,992,69986,212183.2772711846,188357.14469637212,545710.576559374,545765.5618507339,194223.60589785644,546728.8102780355,546374.7586458634,546499.481379924,TASK2
2026-05-26T10:01:28.675+00:00,992,69987,212182.00322175067,188359.0222429064,545709.8389518069,545765.0924641005,194222.06362748903,546728.0726704684,546374.0210382964,546498.4755514235,TASK2
2026-05-26T10:01:28.675+00:00,992,69988,212182.5396636176,188362.77733597488,545711.4482774077,545766.4335687677,194223.1365112229,546729.6819960692,546375.8985848306,546500.0848770243,TASK2
2026-05-26T10:01:28.675+00:00,992,69989,212184.41721015182,188364.65488250912,545705.8826930383,545760.8679843984,194223.1365112229,546724.3846326333,546370.3330004612,546494.5192926549,TASK2
2026-05-26T10:01:28.675+00:00,992,69990,212184.6854310853,188364.18549587554,545696.5620156005,545751.815527894,194222.9353455228,546714.795734262,546360.7441020899,546485.198615217,TASK2
2026-05-26T10:01:28.675+00:00,992,69991,212183.6796025848,188364.45371680902,545690.7282102976,545746.2499435246,194224.81289205703,546709.2301498926,546355.1785177205,546479.6330308476,TASK2
2026-05-26T10:01:28.675+00:00,992,69992,212184.21604445172,188364.7219377425,545695.2879661665,545750.2732575266,194228.0315432586,546713.2534638946,546359.4700526559,546483.6563448496,TASK2
2026-05-26T10:01:28.675+00:00,992,69993,212189.1781317208,188366.13009764315,545699.2442249351,545754.4977372286,194234.46884566173,546716.807391263,546363.2922009578,546488.2161007185,TASK2
2026-05-26T10:01:28.675+00:00,992,69994,212194.27432945662,188367.4712023105,545694.2150824326,545749.4685947262,194237.95571779675,546711.7782487605,546358.2630584553,546482.9187372826,TASK2
2026-05-26T10:01:28.675+00:00,992,69995,212198.29764345856,188366.73359474345,545681.1393119263,545736.3928242198,194241.17436899833,546698.9706991876,546345.187287949,546470.1111877097,TASK2
2026-05-26T10:01:28.675+00:00,992,69996,212202.05273652705,188366.2642081099,545673.1597391558,545728.4132514492,194241.44258993177,546690.9911264171,546337.7441570454,546462.6680568061,TASK2
2026-05-26T10:01:28.675+00:00,992,69997,212208.4900389302,188369.214638378,545673.1597391558,545727.9438648158,194245.46590393374,546690.789960717,546337.2747704118,546462.1986701725,TASK2
2026-05-26T10:01:28.675+00:00,992,69998,212215.46378320025,188370.28752211184,545675.573727557,545730.8942950838,194251.36676446995,546693.740390985,546339.9569797465,546465.1491004407,TASK2
2026-05-26T10:01:28.675+00:00,992,69999,212219.21887626874,188367.94058894404,545672.1539106553,545727.7426991157,194255.12185753844,546690.5887950169,546336.5371628448,546461.9975044724,TASK2
2026-05-26T10:01:28.675+00:00,992,70000,212222.97396933724,188366.6665395101,545662.028570417,545717.3491379439,194258.60872967346,546679.9270129116,546326.1436016731,546451.3357223673,TASK2
2026-05-26T10:01:28.675+00:00,992,70001,212227.26550427265,188369.6169697782,545654.0489976464,545709.6377861068,194262.36382274196,546671.9474401411,546317.895807969,546443.0879286632,TASK2
2026-05-26T10:01:28.675+00:00,992,70002,212232.36170200846,188373.10384191322,545653.0431691459,545708.3637366729,194266.65535767737,546670.6733907072,546317.158200402,546441.8138792292,TASK2
2026-05-26T10:01:28.675+00:00,992,70003,212237.9943416112,188373.64028378014,545656.2618203475,545711.5823878745,194270.9468926128,546673.8920419087,546320.3768516036,546445.0325304308,TASK2
2026-05-26T10:01:28.675+00:00,992,70004,212242.2858765466,188370.2204668785,545652.305561579,545707.3579081724,194274.97020661476,546669.6675622067,546316.1523719016,546441.3444925958,TASK2
2026-05-26T10:01:28.675+00:00,992,70005,212241.28004804612,188369.75108024493,545641.3755585403,545696.4279051337,194276.847753149,546658.737559168,546305.222368863,546430.1462686236,TASK2
2026-05-26T10:01:28.675+00:00,992,70006,212238.3966730114,188372.9697314465,545649.9586284112,545705.0109750045,194278.45707874978,546671.3439430408,546317.8287527357,546443.0208734298,TASK2
2026-05-26T10:01:28.675+00:00,992,70007,212235.2450770432,188374.84727798073,545740.3490829885,545795.1332086484,194279.7981834171,546764.4166069528,546410.3649747807,546535.5570954749,TASK2
2026-05-26T10:01:28.675+00:00,992,70008,212231.02059734115,188367.94058894404,545776.0224671391,545830.2701509321,194274.76904091466,546793.9209096337,546440.1374983952,546565.3296190894,TASK2
2026-05-26T10:01:28.675+00:00,992,70009,212229.47832697374,188356.205923105,545761.337371032,545815.8532757584,194267.5941309445,546779.2358135266,546425.452402288,546550.9127439157,TASK2
2026-05-26T10:01:28.675+00:00,992,70010,212229.74654790718,188349.2992340683,545744.2382865236,545798.4859703167,194259.8827791074,546761.8685080848,546408.3533177797,546533.5454384739,TASK2
2026-05-26T10:01:28.675+00:00,992,70011,212229.00894034017,188343.46542876548,545730.8942950838,545785.1419788769,194254.04897380457,546747.9880747781,546394.4728844729,546519.9332261006,TASK2
2026-05-26T10:01:28.675+00:00,992,70012,212229.00894034017,188339.24094906342,545727.7426991157,545782.2586038421,194249.55627316906,546744.83647881,546391.0530675713,546516.7816301323,TASK2
2026-05-26T10:01:28.675+00:00,992,70013,212233.30047527558,188336.62579496216,545728.010920049,545782.5268247756,194248.01400280165,546745.1046997433,546391.5895094383,546517.3180719994,TASK2
2026-05-26T10:01:28.675+00:00,992,70014,212235.1780218098,188335.3517455282,545721.3724519459,545775.8883566724,194245.66706963384,546738.4662316401,546385.2192622685,546510.9478248296,TASK2
2026-05-26T10:01:28.675+00:00,992,70015,212234.17219330935,188331.66370769308,545708.564902373,545763.349028033,194241.17436899833,546725.9269030007,546372.679933629,546498.4084961901,TASK2
2026-05-26T10:01:28.675+00:00,992,70016,212234.70863517627,188329.31677452527,545699.5124458686,545754.028350595,194240.97320329823,546716.6062255629,546363.3592561912,546489.0878187523,TASK2
2026-05-26T10:01:28.675+00:00,992,70017,212239.80483291208,188329.58499545875,545697.9701755012,545752.2178592941,194243.65541263286,546714.795734262,546361.8169858238,546487.5455483849,TASK2
2026-05-26T10:01:28.675+00:00,992,70018,212248.11968184946,188332.8036466603,545698.2383964346,545752.4860802277,194244.99651730017,546715.0639551955,546361.8169858238,546487.5455483849,TASK2
2026-05-26T10:01:28.675+00:00,992,70019,212251.87477491793,188336.02229786187,545692.6728120652,545746.9204958583,194246.33762196748,546709.7665917595,546356.2514014543,546481.9799640155,TASK2
2026-05-26T10:01:28.675+00:00,992,70020,212255.16048135288,188340.78321943086,545681.4745880931,545736.9963213201,194250.69621213627,546699.1718648877,546345.5896193492,546470.71468481,TASK2
2026-05-26T10:01:28.675+00:00,992,70021,212259.72023722174,188343.73364969896,545673.7632362561,545729.0167485495,194254.45130520477,546691.1922921172,546337.3418256452,546462.7351120395,TASK2
2026-05-26T10:01:28.675+00:00,992,70022,212265.62109775795,188349.9027311686,545675.1043409234,545730.6260741503,194260.35216574097,546692.801617718,546338.951151246,546464.6126585737,TASK2
2026-05-26T10:01:28.675+00:00,992,70023,212273.3995048284,188357.68113823904,545676.7136665242,545731.9671788177,194267.5941309445,546694.6791642521,546340.5604768468,546466.490205108,TASK2
2026-05-26T10:01:28.675+00:00,992,70024,212279.56858629806,188358.7540219729,545669.8069774874,545725.060489781,194270.5445612126,546688.040696149,546333.3855668766,546459.3152951378,TASK2
2026-05-26T10:01:28.675+00:00,992,70025,212285.20122590082,188359.0222429064,545661.0227419165,545716.0080332765,194274.0314333476,546678.720018711,546323.7966685053,546449.9946177,TASK2
2026-05-26T10:01:28.675+00:00,992,70026,212287.61521430197,188359.5586847733,545653.579611013,545709.1013442399,194279.3958520169,546671.5451087409,546316.8899794685,546442.8197077297,TASK2
2026-05-26T10:01:28.675+00:00,992,70027,212289.76098176968,188361.704452241,545652.305561579,545707.8272948059,194287.4424800208,546670.271059307,546315.3477091012,546441.0092164289,TASK2
2026-05-26T10:01:28.675+00:00,992,70028,212294.0525167051,188363.58199877525,545653.9148871797,545709.1683994733,194294.9526661578,546671.8803849078,546316.6888137684,546442.6185420296,TASK2
2026-05-26T10:01:28.675+00:00,992,70029,212298.07583070706,188365.19132437604,545648.3493028104,545703.8710360373,194301.65818949437,546666.8512424054,546311.6596712661,546437.5893995273,TASK2
2026-05-26T10:01:28.675+00:00,992,70030,212298.07583070706,188369.214638378,545638.223962572,545693.4774748656,194305.14506162942,546656.725902167,546301.5343310278,546427.1958383556,TASK2
2026-05-26T10:01:28.675+00:00,992,70031,212298.07583070706,188371.09218491224,545631.0490526019,545686.570785829,194305.41328256286,546649.5509921969,546294.3594210576,546420.2891493188,TASK2
2026-05-26T10:01:28.675+00:00,992,70032,212299.41693537438,188372.9697314465,545630.3114450349,545686.3696201289,194308.36371283096,546648.8133846299,546293.890034424,546419.5515417518,TASK2
2026-05-26T10:01:28.675+00:00,992,70033,212301.02626097517,188376.18838264805,545632.9936543696,545689.0518294635,194312.11880589946,546651.2273730311,546296.5722437587,546422.2337510864,TASK2
2026-05-26T10:01:28.675+00:00,992,70034,212304.78135404366,188376.72482451497,545628.500953734,545684.559128828,194317.48322456874,546647.002893329,546292.3477640566,546418.0092713844,TASK2
2026-05-26T10:01:28.675+00:00,992,70035,212307.19534244481,188379.13881291615,545617.3027297619,545673.0926839224,194324.4569688388,546635.8046693569,546281.1495400845,546406.5428264788,TASK2
2026-05-26T10:01:28.675+00:00,992,70036,212307.73178431176,188381.0163594504,545614.4193547273,545669.6728670207,194330.357829375,546634.5306199229,546280.143711584,546405.2687770448,TASK2
2026-05-26T10:01:28.675+00:00,992,70037,212311.48687738026,188382.62568505117,545644.4600992751,545699.9818325022,194332.23537590925,546666.1806900717,546311.5255607993,546436.9188471936,TASK2
2026-05-26T10:01:28.675+00:00,992,70038,212316.04663324912,188385.03967345235,545661.0897971499,545716.6115303768,194334.91758524388,546679.8599576784,546325.204828406,546450.5981148003,TASK2
2026-05-26T10:01:28.675+00:00,992,70039,212316.3148541826,188385.57611531927,545652.8420034458,545708.0955157394,194337.0633527116,546671.6121639743,546316.6888137684,546442.0821001627,TASK2
2026-05-26T10:01:28.675+00:00,992,70040,212315.84546754902,188380.8151937503,545638.1569073388,545693.9468614992,194337.0633527116,546657.1952888006,546302.0037176614,546427.6652249891,TASK2
2026-05-26T10:01:28.675+00:00,992,70041,212315.64430184892,188377.12715591516,545627.4951252335,545683.285079394,194337.5997945785,546646.5335066954,546291.3419355561,546417.003442884,TASK2
2026-05-26T10:01:28.675+00:00,992,70042,212316.98540651627,188378.73648151595,545626.7575176666,545682.547471827,194337.86801551198,546645.7958991284,546290.8725489227,546416.5340562504,TASK2
2026-05-26T10:01:28.675+00:00,992,70043,212320.74049958473,188382.22335365097,545628.3668432673,545684.4250183612,194336.8621870115,546647.4052247292,546292.4818745235,546418.1433818511,TASK2
2026-05-26T10:01:28.675+00:00,992,70044,212324.22737171978,188384.90556298563,545622.801258898,545678.5912130584,194334.51525384368,546642.1078612932,546286.916290154,546412.5777974818,TASK2
2026-05-26T10:01:28.675+00:00,992,70045,212324.7638135867,188385.97844671947,545611.0665930589,545666.8565472193,194331.63187880896,546630.1049745209,546275.181624315,546400.5749107093,TASK2
2026-05-26T10:01:28.675+00:00,992,70046,212325.30025545362,188387.05133045334,545603.3552412218,545659.1451953823,194329.28494564115,546622.3936226837,546267.470272478,546392.5953379388,TASK2
2026-05-26T10:01:28.675+00:00,992,70047,212329.59179038904,188390.80642352183,545603.8916830887,545659.6816372492,194330.08960844154,546622.9300645506,546268.0067143448,546393.1317798056,TASK2
2026-05-26T10:01:28.675+00:00,992,70048,212334.15154625793,188393.75685378994,545606.3056714899,545662.0956256504,194331.6989340423,546625.6122738853,546270.6889236795,546396.0822100737,TASK2
2026-05-26T10:01:28.675+00:00,992,70049,212336.83375559255,188394.02507472338,545602.3494127213,545657.6029250149,194331.4977683422,546621.3877941832,546266.7326649108,546391.5895094383,TASK2
2026-05-26T10:01:28.675+00:00,992,70050,212338.97952306026,188394.02507472338,545592.2240724831,545647.7458057101,194330.49193984174,546611.5306748784,546256.3391037391,546381.4641691999,TASK2
2026-05-26T10:01:28.675+00:00,992,70051,212341.52762192817,188397.44489162505,545588.9383660482,545643.9236574082,194333.84470151,546606.7026980761,546252.9863420709,546378.5137389319,TASK2
2026-05-26T10:01:28.675+00:00,992,70052,212341.05823529462,188399.3224381593,545594.8392265844,545649.8245179444,194334.91758524388,546612.3353376788,546258.6189816736,546384.1463785346,TASK2
2026-05-26T10:01:28.675+00:00,992,70053,212339.78418586066,188402.8093102943,545597.2532149855,545652.2385063455,194333.6435358099,546615.0175470135,546260.7647491413,546386.5603669358,TASK2
2026-05-26T10:01:28.675+00:00,992,70054,212339.3147992271,188404.15041496165,545591.6876306161,545646.6729219762,194329.41905610787,546609.1837417106,546255.1991647719,546380.7265616329,TASK2
2026-05-26T10:01:28.675+00:00,992,70055,212339.113633527,188403.4128073946,545581.5622903779,545636.547581738,194325.9992392062,546599.0584014724,546245.3420454671,546370.6012213947,TASK2
2026-05-26T10:01:28.675+00:00,992,70056,212339.38185446046,188402.94342076106,545573.3144966739,545628.2997880339,194327.34034387354,546590.8106077684,546237.0942517632,546362.3534276907,TASK2
2026-05-26T10:01:28.675+00:00,992,70057,212340.99118006125,188404.55274636185,545573.8509385409,545628.5680089674,194336.19163467782,546591.0788287019,546237.3624726966,546362.8898695576,TASK2
2026-05-26T10:01:28.675+00:00,992,70058,212344.20983126282,188407.23495569648,545576.264926942,545630.7137764351,194347.18869294983,546593.492817103,546239.7764610978,546365.5720788923,TASK2
2026-05-26T10:01:28.675+00:00,992,70059,212346.89204059745,188406.22912719598,545572.8451100404,545627.0257386001,194354.69887908682,546590.3412211348,546236.6248651296,546362.1522619906,TASK2
2026-05-26T10:01:28.675+00:00,992,70060,212347.16026153092,188403.34575216126,545562.9879907356,545617.4368402286,194358.7221930888,546580.48410183,546226.7677458248,546352.2951426858,TASK2
2026-05-26T10:01:28.675+00:00,992,70061,212344.27688649617,188401.80348179385,545555.008417965,545609.9937093251,194360.8679605565,546572.5045290595,546219.0563939877,546344.5837908487,TASK2
2026-05-26T10:01:28.675+00:00,992,70062,212343.00283706223,188403.4128073946,545554.5390313314,545609.9937093251,194364.623053625,546572.3033633594,546218.5870073541,546344.1144042151,TASK2
2026-05-26T10:01:28.675+00:00,992,70063,212347.02615106417,188404.217470195,545556.4165778657,545611.8712558593,194370.25569322772,546574.1809098936,546220.1963329549,546345.9919507494,TASK2
2026-05-26T10:01:28.675+00:00,992,70064,212351.04946506614,188403.74808356146,545553.2649818975,545608.4514389576,194375.62011189698,546571.0293139254,546216.7765160532,546342.5721338477,TASK2
2026-05-26T10:01:28.675+00:00,992,70065,212351.85412786654,188406.43029289608,545542.8714207257,545598.0578777859,194380.17986776587,546560.9039736872,546206.651175815,546332.178572676,TASK2
2026-05-26T10:01:28.675+00:00,992,70066,212348.70253189834,188407.23495569648,545556.2824673989,545611.7371453926,194380.98453056626,546579.4112180962,546225.4266411575,546350.685817085,TASK2
2026-05-26T10:01:28.675+00:00,992,70067,212345.28271499666,188402.74225506096,545692.270480665,545747.4569377252,194377.83293459806,546719.1543244307,546365.1697474921,546490.4289234196,TASK2
2026-05-26T10:01:28.675+00:00,992,70068,212344.00866556272,188391.81225202233,545762.5443652326,545817.7308222926,194367.97581529326,546780.8451391273,546427.3970040557,546552.3879590497,TASK2
2026-05-26T10:01:28.675+00:00,992,70069,212336.5655346591,188374.17672564706,545742.7630713896,545797.9495284497,194354.63182385344,546760.259182484,546406.5428264788,546531.8020024063,TASK2
2026-05-26T10:01:28.675+00:00,992,70070,212328.04952002162,188356.8094202053,545719.7631263451,545774.9495834053,194341.82427428057,546737.527458373,546383.5428814343,546509.0702782953,TASK2
2026-05-26T10:01:28.675+00:00,992,70071,212319.80172631762,188342.6607659651,545703.7369255706,545759.1916035642,194332.23537590925,546722.0376994655,546367.5166806598,546493.3122984543,TASK2
2026-05-26T10:01:28.680+00:00,992,70072,212314.1020314815,188336.08935309525,545699.9147772688,545755.3694552623,194327.80973050708,546718.3496616303,546364.230974225,546489.8254263193,TASK2
2026-05-26T10:01:28.680+00:00,992,70073,212310.4139936464,188331.5966524597,545699.9147772688,545755.3694552623,194324.65813453888,546718.1484959302,546364.0298085249,546489.8254263193,TASK2
2026-05-26T10:01:28.680+00:00,992,70074,212308.06706047858,188324.95818435648,545692.7398672986,545747.9263243588,194320.16543390337,546710.7053650266,546356.5866776212,546482.1140744822,TASK2
2026-05-26T10:01:28.680+00:00,992,70075,212304.11080171,188320.73370465444,545679.9323177257,545735.1187747859,194313.25874486667,546697.8978154537,546344.0473489818,546469.3065249093,TASK2
2026-05-26T10:01:28.680+00:00,992,70076,212299.349880141,188319.19143428703,545670.8798612213,545726.0663182815,194308.76604423116,546688.8453589494,546334.9948924774,546460.2540684049,TASK2
2026-05-26T10:01:28.993+00:00,993,70077,212296.73472603975,188320.8007598878,545669.6058117873,545725.060489781,194308.56487853106,546687.8395304489,546333.9890639769,546458.980018971,TASK2
2026-05-26T10:01:28.993+00:00,993,70078,212296.26533940618,188321.60542268818,545670.9469164547,545726.1333735149,194312.58819253303,546689.1806351162,546335.0619477108,546460.3211236383,TASK2
2026-05-26T10:01:28.993+00:00,993,70079,212298.14288594044,188321.87364362166,545664.8448902183,545719.7631263451,194316.87972746845,546682.8103879464,546328.9599214745,546454.219097402,TASK2
2026-05-26T10:01:28.993+00:00,993,70080,212300.82509527507,188322.14186455513,545653.6466662462,545708.8331233064,194317.68439026884,546671.6121639743,546318.0299184358,546443.0208734298,TASK2
2026-05-26T10:01:28.993+00:00,993,70081,212303.23908367625,188322.94652735553,545658.2064221152,545713.3928791753,194315.33745710104,546679.6587919783,546326.3447673732,546451.0675014338,TASK2
2026-05-26T10:01:28.993+00:00,993,70082,212306.18951394435,188322.94652735553,545726.6027601484,545781.5209962751,194312.72230299975,546748.8597928118,546395.5457682068,546520.2685022674,TASK2
2026-05-26T10:01:28.993+00:00,993,70083,212306.99417674472,188322.74536165543,545748.8650976259,545804.051554686,194309.57070703155,546766.830595354,546413.5165707489,546538.2393048095,TASK2
2026-05-26T10:01:28.993+00:00,993,70084,212303.84258077652,188318.52088195336,545737.3986527203,545792.5851097804,194305.34622732952,546755.3641504484,546402.0501258433,546526.5046389705,TASK2
2026-05-26T10:01:28.993+00:00,993,70085,212296.93589173985,188312.68707665053,545722.7135566132,545777.6317927398,194300.31708482705,546740.1426124743,546386.8285878693,546511.2831009964,TASK2
2026-05-26T10:01:28.993+00:00,993,70086,212291.102086437,188307.12149228115,545712.3199954415,545766.9700106346,194298.5065935262,546730.0172722361,546376.703247631,546500.8895398247,TASK2
2026-05-26T10:01:28.993+00:00,993,70087,212287.14582766843,188305.57922191374,545709.4366204067,545764.0866356,194301.4570237943,546727.1338972013,546373.8198725963,546498.0061647899,TASK2
2026-05-26T10:01:28.993+00:00,993,70088,212287.14582766843,188305.37805621364,545709.7048413402,545764.0866356,194304.67567499584,546727.1338972013,546374.0880935297,546498.2743857234,TASK2
2026-05-26T10:01:28.993+00:00,993,70089,212287.41404860187,188303.83578584623,545704.6756988377,545759.0574930975,194303.4016255619,546721.5683128319,546368.7907300938,546493.2452432209,TASK2
2026-05-26T10:01:28.993+00:00,993,70090,212285.87177823446,188302.2935154788,545692.6728120652,545747.054606325,194298.90892492636,546709.8336469929,546356.7878433213,546481.5105773819,TASK2
2026-05-26T10:01:28.993+00:00,993,70091,212285.4023916009,188302.09234977872,545686.3025648955,545740.6843591552,194298.17131735935,546703.7316207566,546350.4175961516,546475.1403302122,TASK2
2026-05-26T10:01:28.993+00:00,993,70092,212287.81638000207,188304.5063381799,545685.5649573285,545739.9467515883,194302.19463136132,546702.7257922561,546349.6799885845,546474.1345017117,TASK2
2026-05-26T10:01:28.993+00:00,993,70093,212289.42570560286,188306.38388471413,545686.9060619958,545741.2878562555,194308.09549189752,546704.3351178569,546351.0210932519,546475.7438273125,TASK2
2026-05-26T10:01:28.993+00:00,993,70094,212291.03503120365,188307.18854751452,545682.9498032272,545737.5998184204,194311.58236403254,546700.6470800218,546347.3330554167,546471.5193476104,TASK2
2026-05-26T10:01:28.993+00:00,993,70095,212293.18079867135,188308.26143124836,545671.4833583216,545726.1333735149,194310.57653553205,546688.9124141827,546335.8666105111,546460.3211236383,TASK2
2026-05-26T10:01:28.993+00:00,993,70096,212294.2536824052,188311.7483033834,545663.7720064846,545718.1538007443,194309.03426516464,546681.2010623456,546328.155258674,546452.3415508678,TASK2
2026-05-26T10:01:28.993+00:00,993,70097,212297.6064440735,188319.66082092057,545666.3201053524,545721.573617646,194311.78352973264,546684.1514926137,546330.4351366085,546455.493146836,TASK2
2026-05-26T10:01:28.993+00:00,993,70098,212297.6064440735,188324.48879772294,545668.1976518867,545723.4511641802,194319.02549493616,546685.7608182145,546332.3126831427,546457.3706933702,TASK2
2026-05-26T10:01:28.993+00:00,993,70099,212298.67932780736,188327.17100705756,545663.9731721847,545719.2266844781,194324.65813453888,546681.8045594459,546328.6246453077,546453.682655535,TASK2
2026-05-26T10:01:28.993+00:00,993,70100,212303.23908367625,188327.97566985796,545653.579611013,545709.3695651734,194324.18874790534,546671.6792192077,546318.4993050693,546443.5573152968,TASK2
2026-05-26T10:01:28.993+00:00,993,70101,212306.18951394435,188330.6578791926,545645.8682591758,545701.9264342698,194324.99341070573,546664.2360883041,546310.5197322988,546435.8459634597,TASK2
2026-05-26T10:01:28.993+00:00,993,70102,212308.6035023455,188335.21763506148,545644.8624306753,545700.9206057693,194329.01672470768,546662.9620388701,546308.9774619314,546434.5719140258,TASK2
2026-05-26T10:01:28.993+00:00,993,70103,212313.43147914787,188338.97272812997,545648.6175237438,545704.6756988377,194333.84470151,546666.4489110052,546312.4643340665,546438.3270070943,TASK2
2026-05-26T10:01:28.993+00:00,993,70104,212319.868781551,188343.53248399886,545645.1977068422,545701.5241028696,194334.91758524388,546663.5655359704,546309.5809590317,546435.4436320595,TASK2
2026-05-26T10:01:28.993+00:00,993,70105,212323.08743275254,188345.14180959962,545634.2677038035,545690.3258788974,194333.6435358099,546652.3673119983,546298.3827350596,546424.2454080874,TASK2
2026-05-26T10:01:28.993+00:00,993,70106,212328.18363048835,188346.7511352004,545625.4834682326,545681.273422393,194331.2966026421,546643.3148554938,546289.3302785552,546415.4611725165,TASK2
2026-05-26T10:01:28.993+00:00,993,70107,212338.9124678269,188349.96978640198,545624.7458606656,545680.8040357594,194331.83304450905,546642.5772479268,546288.8608919217,546414.455344016,TASK2
2026-05-26T10:01:28.993+00:00,993,70108,212352.32351450008,188355.0659841378,545627.6962909336,545683.7544660276,194336.92924224486,546645.7958991284,546291.8113221898,546417.4057742842,TASK2
2026-05-26T10:01:28.993+00:00,993,70109,212362.5159099717,188358.28463533934,545625.6175786994,545681.1393119263,194340.9525562468,546643.4489659606,546289.464389022,546415.3270620498,TASK2
2026-05-26T10:01:28.993+00:00,993,70110,212365.19811930635,188359.08929813973,545614.9557965941,545670.7457507546,194343.366544648,546632.7871838554,546279.0708278503,546404.933500878,TASK2
2026-05-26T10:01:28.993+00:00,993,70111,212366.80744490714,188358.08346963924,545608.5855494244,545664.6437245182,194348.73096331727,546628.29448322,546274.3099062812,546400.4408002425,TASK2
2026-05-26T10:01:28.993+00:00,993,70112,212369.75787517524,188357.6140830057,545630.3114450349,545686.3696201289,194354.63182385344,546650.8250416309,546296.5722437587,546422.4349167865,TASK2
2026-05-26T10:01:28.993+00:00,993,70113,212375.1222938445,188358.4187458061,545642.9178289077,545699.2442249351,194359.4598006558,546661.0174371025,546306.7646392303,546432.6273122581,TASK2
2026-05-26T10:01:28.993+00:00,993,70114,212378.877386913,188359.7598504734,545637.3522445384,545693.1421986988,194362.14200999044,546655.1836317996,546301.199054861,546426.7935069554,TASK2
2026-05-26T10:01:28.993+00:00,993,70115,212380.2184915803,188357.4129173056,545625.8857996328,545681.4075328597,194364.0195565247,546643.717186894,546289.7326099554,546415.3270620498,TASK2
2026-05-26T10:01:28.993+00:00,993,70116,212381.0231543807,188357.68113823904,545617.1015640618,545672.6232972888,194364.55599839162,546634.9329513231,546280.4119325175,546406.5428264788,TASK2
2026-05-26T10:01:28.993+00:00,993,70117,212383.70536371533,188360.63156850715,545615.827514628,545671.6174687883,194368.04287052664,546634.1953437561,546279.406104017,546405.5369979783,TASK2
2026-05-26T10:01:28.993+00:00,993,70118,212390.94732891888,188362.77733597488,545617.1686192952,545673.4950153226,194370.45685892782,546635.5364484234,546281.0154296178,546406.8781026456,TASK2
2026-05-26T10:01:28.993+00:00,993,70119,212398.45751505584,188363.85021970872,545613.2123605267,545669.2705356205,194371.52974266166,546631.3119687213,546277.3273917827,546402.6536229436,TASK2
2026-05-26T10:01:28.993+00:00,993,70120,212402.74904999125,188362.84439120823,545603.6234621553,545659.9498581827,194370.25569322772,546622.259512217,546268.0067143448,546393.3329455057,TASK2
2026-05-26T10:01:28.993+00:00,993,70121,212408.381689594,188360.49745804042,545595.9121103182,545652.2385063455,194373.74256536274,546614.5481603799,546260.0271415743,546385.3533727352,TASK2
2026-05-26T10:01:28.993+00:00,993,70122,212415.08721293058,188360.02807140688,545595.4427236847,545651.7691197121,194378.57054216508,546614.0787737464,546259.8259758742,546385.1522070351,TASK2
2026-05-26T10:01:28.993+00:00,993,70123,212419.64696879947,188359.29046383983,545598.9295958197,545655.255991847,194379.64342589895,546617.0292040145,546263.0446270758,546388.3708582367,TASK2
2026-05-26T10:01:28.993+00:00,993,70124,212425.07844270213,188359.82690570678,545598.8625405863,545654.3172185799,194382.05741430013,546616.962148781,546262.910516609,546388.3708582367,TASK2
2026-05-26T10:01:28.993+00:00,993,70125,212425.8831055025,188359.62574000668,545589.5418631484,545644.7283202086,194383.6667399009,546607.1050294763,546253.0533973043,546378.7819598654,TASK2
2026-05-26T10:01:28.993+00:00,993,70126,212422.46328860085,188360.43040280705,545609.9266540917,545664.8448902183,194383.93496083436,546633.6589018892,546279.8754906507,546405.0676113447,TASK2
2026-05-26T10:01:28.993+00:00,993,70127,212415.55659956415,188355.93770217153,545767.3723420348,545822.8270200285,194379.44226019885,546794.8596829008,546441.6127135291,546566.53661329,TASK2
2026-05-26T10:01:28.993+00:00,993,70128,212407.30880586014,188343.93481539906,545833.3546916669,545888.2729277937,194366.3664896925,546851.4542998617,546498.4755514235,546623.3994511842,TASK2
2026-05-26T10:01:28.993+00:00,993,70129,212396.11058188803,188324.68996342304,545811.6958512898,545866.6140874164,194350.34028891803,546829.2590176176,546476.2802691794,546601.2041689401,TASK2
2026-05-26T10:01:28.993+00:00,993,70130,212384.375916049,188307.59087891472,545787.3548015779,545842.2730377046,194336.4598556113,546804.9179679058,546451.6709985341,546576.5948982948,TASK2
2026-05-26T10:01:28.993+00:00,993,70131,212371.83658740958,188298.8066433438,545770.2557170696,545825.4421741298,194324.72518977226,546787.8188833975,546434.3036930923,546559.4958137865,TASK2
2026-05-26T10:01:28.993+00:00,993,70132,212363.85701463904,188292.43639617402,545764.6901327003,545820.1448106938,194314.86807046746,546782.789740895,546429.0063296565,546554.1984503506,TASK2
2026-05-26T10:01:28.993+00:00,993,70133,212359.09609307005,188287.9436955385,545763.9525251333,545819.6754240603,194306.62027676345,546782.3203542614,546428.000501156,546553.7290637171,TASK2
2026-05-26T10:01:28.993+00:00,993,70134,212354.33517150106,188281.0370065018,545757.31405703,545812.7687350236,194296.4949365252,546774.8772233578,546421.0938121192,546546.8223746803,TASK2
2026-05-26T10:01:28.993+00:00,993,70135,212354.13400580097,188273.86209653167,545746.1158330579,545802.1069529185,194286.36959628694,546764.2154412527,546410.432030014,546535.8923716417,TASK2
2026-05-26T10:01:28.993+00:00,993,70136,212353.12817730047,188269.90583776307,545735.7222718862,545791.4451708132,194274.90315138138,546754.0901010144,546400.0384688423,546525.49881047,TASK2
2026-05-26T10:01:28.993+00:00,993,70137,212351.31768599962,188269.4364511295,545733.1071177849,545788.5617957785,194268.26468327816,546751.2067259797,546397.6915356745,546522.8836563687,TASK2
2026-05-26T10:01:28.993+00:00,993,70138,212348.70253189834,188271.0457767303,545735.7893271195,545790.9757841796,194263.50376170917,546753.8889353143,546400.1055240757,546525.5658657033,TASK2
2026-05-26T10:01:28.993+00:00,993,70139,212347.42848246437,188271.85043953068,545731.296626484,545787.0195254111,194259.81572387405,546749.9326765457,546395.8810443736,546521.6096069347,TASK2
2026-05-26T10:01:28.993+00:00,993,70140,212346.95909583083,188269.50350636287,545719.025518778,545775.0166386386,194256.12768603893,546737.3933479063,546383.6099366677,546509.3384992288,TASK2
2026-05-26T10:01:28.993+00:00,993,70141,212346.48970919725,188265.81546852776,545710.5095041406,545766.5006240011,194252.17142727034,546729.1455542023,546375.3621429637,546500.8224845913,TASK2
2026-05-26T10:01:28.993+00:00,993,70142,212345.21565976331,188263.7367562934,545711.8506088079,545768.1099496019,194249.28805223558,546730.754879803,546376.9714685645,546502.4318101921,TASK2
2026-05-26T10:01:28.993+00:00,993,70143,212343.13694752895,188262.99914872638,545714.264597209,545770.5239380031,194247.47756093473,546733.1688682042,546379.653677899,546505.1140195268,TASK2
2026-05-26T10:01:28.993+00:00,993,70144,212339.98535156075,188262.79798302628,545710.8447803074,545766.5676792344,194246.73995336768,546729.2126094357,546375.4291981971,546501.1577607582,TASK2
2026-05-26T10:01:28.993+00:00,993,70145,212334.15154625793,188263.60264582667,545699.6465563353,545755.3694552623,194242.78369459911,546717.74616453,546363.9627532915,546489.6913158526,TASK2
2026-05-26T10:01:28.993+00:00,993,70146,212329.39062468894,188266.2848551613,545691.1305416978,545747.1216615584,194237.75455209665,546709.498370826,546355.7149595874,546481.4435221485,TASK2
2026-05-26T10:01:28.993+00:00,993,70147,212327.84835432153,188271.64927383058,545690.9293759977,545746.9204958583,194235.40761892885,546709.498370826,546355.5137938873,546481.2423564484,TASK2
2026-05-26T10:01:28.993+00:00,993,70148,212328.65301712192,188278.35479716718,545693.3433643989,545749.3344842595,194233.59712762796,546711.9123592272,546357.9277822885,546483.6563448496,TASK2
2026-05-26T10:01:28.993+00:00,993,70149,212328.18363048835,188284.52387863683,545689.1188846969,545745.1100045574,194231.51841539363,546707.9561004586,546353.7033025865,546479.700086081,TASK2
2026-05-26T10:01:28.993+00:00,993,70150,212327.98246478825,188291.4976229069,545677.6524397912,545733.6435596518,194228.09859849195,546696.489655553,546341.9686367474,546468.2336411754,TASK2
2026-05-26T10:01:28.993+00:00,993,70151,212331.20111598982,188297.66670437655,545668.8682042203,545724.8593240809,194224.94700252375,546687.4371990487,546333.1844011765,546459.4494056045,TASK2
2026-05-26T10:01:29.403+00:00,994,70152,212336.83375559255,188303.56756491275,545666.789491986,545722.7806118465,194223.67295308982,546685.6267077478,546331.3739098756,546457.3706933702,TASK2
2026-05-26T10:01:29.403+00:00,994,70153,212344.34394172954,188311.61419291666,545669.2034803872,545725.4628211812,194221.326019922,546688.040696149,546333.7878982768,546460.0529027048,TASK2
2026-05-26T10:01:29.403+00:00,994,70154,212349.70836039883,188317.78327438634,545664.1743378848,545720.7018996122,194216.56509835302,546683.0115536465,546328.7587557744,546455.2919811358,TASK2
2026-05-26T10:01:29.403+00:00,994,70155,212354.73750290126,188321.94069885503,545655.255991847,545710.7106698407,194211.2677349171,546673.2214895751,546319.4380783365,546444.697254264,TASK2
2026-05-26T10:01:29.403+00:00,994,70156,212359.5654797036,188323.01358258887,545647.8128609435,545702.9993180035,194205.1657086808,546666.046579605,546312.2631683664,546437.7905652274,TASK2
2026-05-26T10:01:29.403+00:00,994,70157,212366.80744490714,188326.23223379045,545648.8857446773,545704.6086436043,194202.818775513,546667.6559052058,546313.3360521002,546439.3998908282,TASK2
2026-05-26T10:01:29.403+00:00,994,70158,212375.1222938445,188327.84155939124,545651.2997330785,545706.7544110721,194201.8129470125,546669.5334517399,546315.2135986345,546441.2774373624,TASK2
2026-05-26T10:01:29.403+00:00,994,70159,212382.09603811457,188326.83573089074,545647.8799161768,545703.6028151038,194199.73423477818,546665.8454139049,546311.7937817328,546437.5893995273,TASK2
2026-05-26T10:01:29.403+00:00,994,70160,212388.5333405177,188326.36634425717,545636.9499131382,545692.4045911317,194196.58263880998,546654.9154108661,546300.8637786942,546426.6593964886,TASK2
2026-05-26T10:01:29.403+00:00,994,70161,212393.89775918695,188327.70744892448,545628.1656775672,545683.3521346274,194192.89460097486,546646.1311752952,546291.8113221898,546417.3387190507,TASK2
2026-05-26T10:01:29.403+00:00,994,70162,212400.3350615901,188330.12143732567,545626.3551862664,545681.5416433265,194192.15699340784,546644.5889049278,546290.2690518224,546415.5282277499,TASK2
2026-05-26T10:01:29.403+00:00,994,70163,212407.04058492667,188333.07186759377,545629.3056165344,545684.7602945281,194195.3756446094,546647.8075561294,546293.7559239573,546419.2833208183,TASK2
2026-05-26T10:01:29.403+00:00,994,70164,212410.79567799516,188335.7540769284,545626.6904624332,545682.1451404268,194195.9120864763,546645.1924020281,546291.140769856,546417.204608584,TASK2
2026-05-26T10:01:29.403+00:00,994,70165,212415.62365479753,188336.5587397288,545616.028680328,545671.4833583216,194193.02871144158,546634.5306199229,546280.478987751,546406.5428264788,TASK2
2026-05-26T10:01:29.403+00:00,994,70166,212421.52451533373,188339.24094906342,545608.8537703578,545664.8448902183,194192.0228829411,546627.6239308863,546273.3040777807,546399.3679165087,TASK2
2026-05-26T10:01:29.403+00:00,994,70167,212427.15715493646,188345.14180959962,545608.1161627908,545664.1072826514,194193.09576667496,546626.8863233193,546272.5664702137,546398.3620880082,TASK2
2026-05-26T10:01:29.403+00:00,994,70168,212432.7897945392,188349.96978640198,545610.2619302585,545665.9848291856,194193.63220854188,546628.4956489201,546274.7122376814,546400.5078554759,TASK2
2026-05-26T10:01:29.403+00:00,994,70169,212434.66734107345,188355.0659841378,545607.1103342903,545662.8332332174,194192.35815910794,546625.0758320184,546271.2924207798,546397.0880385742,TASK2
2026-05-26T10:01:29.403+00:00,994,70170,212434.46617537335,188359.62574000668,545596.7167731186,545652.1714511123,194189.20656313974,546614.6822708467,546260.3624177411,546386.1580355356,TASK2
2026-05-26T10:01:29.403+00:00,994,70171,212434.46617537335,188362.57617027478,545593.5651771504,545648.7516342106,194186.05496717154,546613.6764423462,546259.3565892406,546384.8839861016,TASK2
2026-05-26T10:01:29.403+00:00,994,70172,212435.00261724027,188365.52660054286,545630.3114450349,545686.034343962,194183.1715921368,546652.8366986319,546298.5168455263,546424.3124633208,TASK2
2026-05-26T10:01:29.403+00:00,994,70173,212437.41660564145,188365.52660054286,545653.9148871797,545709.6377861068,194179.48355430167,546672.6850477082,546318.6334155361,546444.1608123971,TASK2
2026-05-26T10:01:29.403+00:00,994,70174,212437.41660564145,188362.64322550813,545647.0081981431,545702.7310970702,194173.64974899884,546665.510137738,546311.458505566,546436.985902427,TASK2
2026-05-26T10:01:29.403+00:00,994,70175,212435.3378934071,188360.83273420724,545633.6642067032,545689.3871056304,194165.13373436136,546652.4343672317,546298.1145141261,546423.9101319206,TASK2
2026-05-26T10:01:29.403+00:00,994,70176,212437.01427424126,188362.1738388746,545623.3377007649,545678.7923787585,194160.50692325912,546641.3702537263,546287.3856767876,546412.8460184152,TASK2
2026-05-26T10:01:29.403+00:00,994,70177,212438.62359984202,188364.58782727574,545621.2589885305,545676.7136665242,194158.4282110248,546639.5597624254,546285.3069645532,546411.0355271143,TASK2
2026-05-26T10:01:29.403+00:00,994,70178,212442.3786929105,188367.00181567692,545623.9411978652,545679.6640967922,194155.2766150566,546642.5101926934,546287.9891738879,546413.9859573825,TASK2
2026-05-26T10:01:29.403+00:00,994,70179,212443.45157664438,188367.00181567692,545620.789601897,545676.512500824,194150.78391442107,546639.6268176588,546285.1057988531,546410.5661404808,TASK2
2026-05-26T10:01:29.403+00:00,994,70180,212443.25041094428,188364.1184406422,545610.9324825922,545666.6553815192,194145.48655098517,546629.769698354,546275.2486795484,546400.709021176,TASK2
2026-05-26T10:01:29.403+00:00,994,70181,212445.396178412,188361.7715074744,545604.0257935555,545659.2122506156,194140.18918754926,546622.5947883838,546267.8055486447,546393.5341112058,TASK2
2026-05-26T10:01:29.403+00:00,994,70182,212449.6877133474,188363.64905400862,545602.7517441215,545657.9382011817,194136.76937064758,546621.3207389498,546267.0679410778,546392.2600617718,TASK2
2026-05-26T10:01:29.403+00:00,994,70183,212456.66145761748,188365.2583796094,545605.4339534562,545660.3521895829,194134.69065841325,546624.0029482845,546269.4819294789,546394.9422711065,TASK2
2026-05-26T10:01:29.403+00:00,994,70184,212461.4894344198,188365.79482147633,545602.818799355,545658.0052564151,194130.1979577777,546621.6560151167,546266.8667753777,546392.3271170052,TASK2
2026-05-26T10:01:29.403+00:00,994,70185,212462.02587628673,188366.33126334325,545592.6934591166,545647.6116952434,194125.16881527528,546611.262453945,546256.7414351393,546381.6653349,TASK2
2026-05-26T10:01:29.403+00:00,994,70186,212459.142501252,188365.59365577623,545614.6875756606,545669.6058117873,194121.21255650668,546639.4256519587,546285.1728540865,546410.0967538472,TASK2
2026-05-26T10:01:29.403+00:00,994,70187,212451.43114941492,188362.44205980803,545771.06037987,545826.2468369302,194110.28255346805,546798.2124445692,546443.6914257635,546568.6153255242,TASK2
2026-05-26T10:01:29.403+00:00,994,70188,212441.30580917667,188353.38960330363,545817.7308222926,545872.9172793528,194091.03770149202,546837.1044799214,546482.3152401823,546607.239139943,TASK2
2026-05-26T10:01:29.403+00:00,994,70189,212427.69359680338,188338.7045071965,545795.5355400486,545850.7219971087,194071.52462858256,546814.1045348769,546459.3152951378,546583.970973965,TASK2
2026-05-26T10:01:29.403+00:00,994,70190,212413.00850069625,188321.33720175474,545773.072036871,545828.2584939311,194054.6937650077,546791.3728107659,546436.8517919602,546561.239249854,TASK2
2026-05-26T10:01:29.403+00:00,994,70191,212403.15138139145,188309.87075684915,545757.8504988969,545813.0369559571,194039.7404479671,546776.4194937253,546421.6302539861,546546.2859328134,TASK2
2026-05-26T10:01:29.403+00:00,994,70192,212396.51291328823,188301.08652127822,545751.7484726607,545806.9349297207,194031.76087519655,546770.3174674889,546415.7964486834,546540.4521275106,TASK2
2026-05-26T10:01:29.403+00:00,994,70193,212392.55665451963,188293.37516944113,545750.7426441602,545805.9291012203,194026.7317326941,546769.5798599219,546415.0588411163,546539.982740877,TASK2
2026-05-26T10:01:29.403+00:00,994,70194,212388.60039575104,188286.200259471,545745.9817225911,545801.4364005848,194019.02038085702,546764.818938353,546410.5661404808,546534.9535983746,TASK2
2026-05-26T10:01:29.403+00:00,994,70195,212383.83947418208,188278.75712856738,545733.4423939517,545789.1652928788,194011.0408080865,546752.2796097135,546397.7585909079,546522.6824906686,TASK2
2026-05-26T10:01:29.403+00:00,994,70196,212380.95609914733,188273.7279860649,545723.04883278,545778.771731707,194005.4752237171,546741.8860485418,546387.0968088027,546512.0207085634,TASK2
2026-05-26T10:01:29.403+00:00,994,70197,212380.75493344723,188273.7279860649,545721.2383414791,545776.6930194728,194002.3236277489,546739.539115374,546385.2863175018,546510.2102172625,TASK2
2026-05-26T10:01:29.403+00:00,994,70198,212383.1689218484,188275.60553259918,545722.5794461464,545777.7659032065,193998.90381084726,546740.6119991079,546386.3592012357,546511.0148800629,TASK2
2026-05-26T10:01:29.403+00:00,994,70199,212386.1193521165,188276.1419744661,545718.6231873778,545773.809644438,193994.41111021175,546736.6557403392,546382.4029424671,546507.0586212943,TASK2
