timestamp_utc,packet_index,sample_index,AF3,AF4,F3,F4,FC5,FC6,O2,O1,label
2026-05-26T09:50:57.368+00:00,719,48227,114704.88336144487,73399.73132607118,71742.93062006599,64800.769364925545,372745.96068214905,136763.84231613186,88775.63044734365,107199.39109079732,TASK1
2026-05-26T09:50:57.368+00:00,719,48228,114698.5131142751,73391.48353236717,71733.34172169467,64791.71690842114,372755.0801938868,136751.03476655897,88758.26314190187,107182.82844815594,TASK1
2026-05-26T09:50:57.368+00:00,719,48229,114692.67930897226,73382.43107586277,71723.48460238987,64780.25046351557,372759.90817068913,136735.54500765144,88741.96872019395,107166.26580551456,TASK1
2026-05-26T09:50:57.368+00:00,719,48230,114689.2594920706,73373.37861935838,71716.57791335319,64767.17469300922,372766.6136940257,136717.37303940929,88723.26031008486,107148.63027913932,TASK1
2026-05-26T09:50:57.368+00:00,719,48231,114681.0116983666,73367.27659312208,71708.8665615161,64755.44002717018,372776.80608949735,136703.22438516907,88705.0883418427,107129.92186903022,TASK1
2026-05-26T09:50:57.368+00:00,719,48232,114678.79887566552,73363.45444482022,71704.10563994713,64747.59456486637,372784.0480547009,136695.58008856536,88693.21956553693,107114.29799965596,TASK1
2026-05-26T09:50:57.368+00:00,719,48233,114673.23329129616,73359.49818605163,71699.34471837815,64740.95609676314,372783.57866806735,136687.86873672827,88684.70355089946,107100.68578728267,TASK1
2026-05-26T09:50:57.368+00:00,719,48234,114670.34991626142,73353.93260168226,71694.3155758757,64733.512965859525,372784.6515518012,136675.8658499558,88674.84643159466,107086.268912109,TASK1
2026-05-26T09:50:57.368+00:00,719,48235,114666.39365749282,73349.43990104675,71688.2135496394,64728.21560242362,372787.60198206926,136666.008730651,88663.91642855603,107072.1202578688,TASK1
2026-05-26T09:50:57.368+00:00,719,48236,114663.5102824581,73348.70229347971,71685.33017460466,64725.86866925581,372790.5524123374,136663.39357654972,88657.27796045279,107064.14068509825,TASK1
2026-05-26T09:50:57.368+00:00,719,48237,114661.16334929029,73341.79560444302,71682.44679956994,64719.49842208605,372784.71860703453,136655.41400377918,88651.44415514996,107057.23399606155,TASK1
2026-05-26T09:50:57.368+00:00,719,48238,114656.13420678784,73336.49824100711,71677.95409893442,64711.5188493155,372775.66615053016,136647.16621007517,88641.85525677862,107047.37687675677,TASK1
2026-05-26T09:50:57.368+00:00,719,48239,114651.90972708579,73336.02885437355,71673.99784016583,64707.294369613446,372766.3454730923,136640.52774197195,88637.89899801005,107039.12908305276,TASK1
2026-05-26T09:50:57.368+00:00,719,48240,114647.9534683172,73333.14547933883,71673.79667446573,64705.752099246034,372758.9023421887,136632.81639013486,88636.62494857609,107035.7092661511,TASK1
2026-05-26T09:50:57.368+00:00,719,48241,114641.04677928051,73328.6527787033,71671.44974129793,64698.30896834242,372755.75074622047,136625.64148016472,88629.7182595394,107032.82589111636,TASK1
2026-05-26T09:50:57.368+00:00,719,48242,114637.89518331231,73327.91517113628,71669.37102906358,64694.88915144075,372751.5262665184,136623.83098886383,88629.98648047286,107033.63055391675,TASK1
2026-05-26T09:50:57.368+00:00,719,48243,114636.3529129449,73329.2562758036,71667.29231682923,64693.883322940266,372751.3251008183,136621.75227662947,88628.17598917198,107036.3127632514,TASK1
2026-05-26T09:50:57.368+00:00,719,48244,114632.39665417631,73331.4020432713,71661.4585115264,64691.80461070592,372754.5437520199,136620.21000626206,88628.44421010544,107036.1115975513,TASK1
2026-05-26T09:50:57.368+00:00,719,48245,114631.12260474236,73332.74314793863,71660.45268302591,64692.07283163939,372758.0306241549,136619.47239869504,88631.12641944009,107037.72092315207,TASK1
2026-05-26T09:50:57.368+00:00,719,48246,114630.92143904226,73335.69357820673,71661.2573458263,64695.29148284095,372762.85860095726,136620.81350336235,88633.00396597433,107044.69466742213,TASK1
2026-05-26T09:50:57.368+00:00,719,48247,114629.11094774138,73339.71689220869,71658.37397079157,64698.51013404252,372771.4416708281,136624.30037549738,88633.54040784125,107051.40019075872,TASK1
2026-05-26T09:50:57.368+00:00,719,48248,114627.03223550704,73344.27664807756,71656.29525855722,64700.655901510225,372778.1471941647,136629.66479416666,88636.2226171759,107056.22816756107,TASK1
2026-05-26T09:50:57.368+00:00,719,48249,114629.4462239082,73347.7635202126,71657.36814229107,64701.19234337715,372779.7565197655,136631.00589883397,88636.2226171759,107053.88123439325,TASK1
2026-05-26T09:50:57.368+00:00,719,48250,114632.12843324285,73350.98217141416,71660.58679349265,64703.0698899114,372781.6340662997,136630.26829126696,88636.75905904282,107049.12031282428,TASK1
2026-05-26T09:50:57.368+00:00,719,48251,114633.2013169767,73357.15125288382,71662.19611909342,64706.55676204642,372788.07136870286,136635.90093086968,88640.51415211131,107052.6071849593,TASK1
2026-05-26T09:50:57.368+00:00,719,48252,114636.41996817826,73361.44278781924,71664.87832842807,64710.04363418145,372796.11799670674,136641.26534953897,88644.80568704673,107061.4584757636,TASK1
2026-05-26T09:50:57.368+00:00,719,48253,114640.17506124676,73359.90051745182,71666.75587496231,64710.580076048376,372803.0917409768,136640.7959629054,88649.09722198216,107065.48178976556,TASK1
2026-05-26T09:50:57.368+00:00,719,48254,114642.32082871447,73360.43695931874,71669.43808429694,64709.84246848136,372806.8468340453,136641.6006257058,88648.09139348166,107060.98908913005,TASK1
2026-05-26T09:50:57.368+00:00,719,48255,114642.32082871447,73363.11916865339,71673.72961923237,64711.988235949066,372814.8934620492,136644.5510559739,88652.11470748362,107058.64215596224,TASK1
2026-05-26T09:50:57.368+00:00,719,48256,114644.19837524871,73363.65561052032,71679.09403790164,64713.32934061638,372825.0858575208,136644.08166934035,88656.94268428597,107060.25148156303,TASK1
2026-05-26T09:50:57.368+00:00,719,48257,114647.41702645028,73367.67892452228,71683.38557283705,64717.75498601853,372830.4502761901,136647.03209960845,88660.02722502079,107061.72669669706,TASK1
2026-05-26T09:50:57.368+00:00,719,48258,114649.02635205105,73373.57978505846,71685.53134030476,64720.9736372201,372831.52315992396,136655.61516947928,88661.90477155504,107063.33602229785,TASK1
2026-05-26T09:50:57.368+00:00,719,48259,114652.24500325262,73374.92088972579,71689.82287524019,64721.24185815356,372835.010032059,136657.4927160135,88667.53741115778,107066.28645256595,TASK1
2026-05-26T09:50:57.368+00:00,719,48260,114655.73187538765,73378.40776186081,71694.919072976,64724.72873028859,372840.9108925952,136660.4431462816,88676.12048102861,107071.9190921687,TASK1
2026-05-26T09:50:57.368+00:00,719,48261,114658.68230565575,73383.7721805301,71702.16103817952,64729.55670709094,372845.47064846405,136667.9533324186,88686.04465556677,107081.57504577338,TASK1
2026-05-26T09:50:57.368+00:00,719,48262,114660.02341032306,73389.13659919937,71709.6712243165,64734.92112576021,372847.6164159318,136674.12241388825,88694.89594637108,107093.37676684579,TASK1
2026-05-26T09:50:57.368+00:00,719,48263,114662.43739872424,73391.81880853401,71715.30386391924,64735.7257885606,372850.56684619986,136679.21861162406,88701.60146970766,107105.1784879182,TASK1
2026-05-26T09:50:57.368+00:00,719,48264,114664.85138712541,73396.91500626982,71719.05895698773,64738.139776961776,372859.95457887114,136674.99413192202,88705.89300464309,107116.71198805714,TASK1
2026-05-26T09:50:57.368+00:00,719,48265,114665.92427085926,73401.47476213869,71724.15515472354,64742.16309096373,372869.87875340926,136675.79879472242,88711.79386517928,107125.29505792797,TASK1
2026-05-26T09:50:57.368+00:00,719,48266,114669.4111429943,73406.83918080796,71731.1288989936,64745.113521231826,372876.58427674585,136699.93867873415,88719.30405131627,107134.68279059921,TASK1
2026-05-26T09:50:57.368+00:00,719,48267,114671.28868952855,73413.81292507802,71735.95687579594,64747.527509633,372883.28980008245,136705.03487646996,88723.86380718515,107140.31543020194,TASK1
2026-05-26T09:50:57.368+00:00,719,48268,114672.3615732624,73422.1277740154,71737.56620139672,64752.35548643535,372889.99532341905,136707.18064393767,88730.8375514552,107148.63027913932,TASK1
2026-05-26T09:50:57.368+00:00,719,48269,114674.23911979664,73429.10151828545,71737.83442233018,64757.988126038086,372895.09152115486,136718.17770220968,88739.42062132605,107155.06758154245,TASK1
2026-05-26T09:50:57.368+00:00,719,48270,114677.18955006474,73435.27059975512,71740.24841073136,64763.084323773895,372899.9194979572,136722.20101621162,88743.443935328,107160.96844207865,TASK1
2026-05-26T09:50:57.368+00:00,719,48271,114676.98838436464,73443.5854486925,71745.0763875337,64768.180521509705,372907.9661259611,136724.34678367933,88740.56056029326,107160.23083451162,TASK1
2026-05-26T09:50:57.368+00:00,719,48272,114679.13415183236,73452.4367394968,71749.09970153566,64772.20383551166,372914.13520743075,136729.7112023486,88738.75006899239,107160.23083451162,TASK1
2026-05-26T09:50:57.368+00:00,719,48273,114680.20703556621,73455.65539069836,71751.7819108703,64772.20383551166,372918.42674236617,136732.39341168324,88740.62761552664,107161.30371824547,TASK1
2026-05-26T09:50:57.368+00:00,719,48274,114679.46942799918,73456.46005349875,71753.65945740454,64768.78401861,372925.6687075697,136732.19224598314,88744.6509295286,107163.18126477972,TASK1
2026-05-26T09:50:57.368+00:00,719,48275,114677.92715763177,73462.36091403494,71757.41455047304,64772.00266981156,372933.71533557365,136739.9706530536,88748.94246446401,107167.47279971513,TASK1
2026-05-26T09:50:57.368+00:00,719,48276,114679.26826229908,73466.11600710344,71763.04719007577,64775.48954194659,372939.34797517635,136741.31175772092,88755.11154593367,107175.25120678559,TASK1
2026-05-26T09:50:57.657+00:00,720,48277,114679.53648323254,73468.52999550462,71765.72939941041,64775.02015531303,372943.90773104527,136740.30592922043,88755.91620873407,107175.51942771905,TASK1
2026-05-26T09:50:57.657+00:00,720,48278,114681.95047163373,73471.74864670618,71767.87516687812,64774.81898961293,372945.517056646,136739.5683216534,88759.40308086909,107179.27452078754,TASK1
2026-05-26T09:50:57.657+00:00,720,48279,114682.75513443412,73473.0897513735,71770.02093434583,64776.428315213714,372945.517056646,136739.83654258685,88765.84038327223,107186.78470692453,TASK1
2026-05-26T09:50:57.657+00:00,720,48280,114684.36446003489,73472.35214380648,71771.89848088007,64775.15426577976,372950.6132543818,136741.1776472542,88766.37682513914,107188.66225345877,TASK1
2026-05-26T09:50:57.657+00:00,720,48281,114686.24200656914,73473.15680660686,71776.19001581549,64772.00266981156,372959.7327661196,136743.85985658882,88769.5954763407,107189.73513719262,TASK1
2026-05-26T09:50:57.657+00:00,720,48282,114687.85133216993,73474.22969034071,71778.60400421667,64770.99684131108,372962.4149754542,136745.4691821896,88779.2514299454,107195.36777679536,TASK1
2026-05-26T09:50:57.657+00:00,720,48283,114689.19243683724,73475.57079500804,71780.74977168438,64773.410829712244,372963.4878591881,136735.61206288481,88784.07940674775,107200.19575359771,TASK1
2026-05-26T09:50:57.657+00:00,720,48284,114690.93587290475,73477.64950724239,71784.8401409197,64778.97641408162,372969.1204987908,136734.4721239176,88787.09689224922,107202.47563153216,TASK1
2026-05-26T09:50:57.657+00:00,720,48285,114689.6618234708,73475.57079500804,71787.7905711878,64777.16592278074,372971.80270812544,136748.4196124577,88790.58376438424,107207.03538740103,TASK1
2026-05-26T09:50:57.657+00:00,720,48286,114691.53937000505,73477.18012060881,71791.81388518975,64775.35543147986,372972.60737092583,136747.68200489067,88797.02106678738,107216.69134100573,TASK1
2026-05-26T09:50:57.657+00:00,720,48287,114693.4169165393,73481.47165554424,71795.56897825825,64776.96475708064,372970.796879625,136751.16887702572,88797.5575086543,107220.44643407421,TASK1
2026-05-26T09:50:57.657+00:00,720,48288,114694.22157933969,73483.34920207848,71798.25118759288,64777.2329780141,372969.25460925756,136749.09016479136,88797.82572958776,107223.66508527579,TASK1
2026-05-26T09:50:57.657+00:00,720,48289,114691.06998337149,73485.76319047966,71797.51358002586,64777.2329780141,372970.05927205796,136749.35838572483,88797.08812202074,107225.54263181002,TASK1
2026-05-26T09:50:57.657+00:00,720,48290,114689.2594920706,73485.02558291263,71797.31241432576,64778.037640814495,372975.15546979377,136751.23593225906,88797.3563429542,107231.44349234622,TASK1
2026-05-26T09:50:57.657+00:00,720,48291,114686.1078961024,73483.48331254521,71798.11707712615,64775.15426577976,372988.29829553346,136747.2796734905,88797.3563429542,107235.73502728165,TASK1
2026-05-26T09:50:57.657+00:00,720,48292,114685.37028853539,73485.36085907946,71797.11124862566,64773.34377447888,373001.17290033976,136750.76654562552,88794.74118885293,107238.14901568282,TASK1
2026-05-26T09:50:57.657+00:00,720,48293,114684.36446003489,73484.8914724459,71794.4960945244,64770.19217851068,373004.6597724748,136752.10765029283,88791.0531510178,107237.67962904926,TASK1
2026-05-26T09:50:57.657+00:00,720,48294,114681.74930593363,73484.8914724459,71792.14916135657,64767.845245342876,373003.92216490774,136751.90648459274,88787.90155504961,107238.48429184964,TASK1
2026-05-26T09:50:57.657+00:00,720,48295,114679.40237276582,73484.6903067458,71790.60689098916,64765.49831217507,373008.21369984315,136752.44292645965,88785.28640094833,107238.75251278312,TASK1
2026-05-26T09:50:57.657+00:00,720,48296,114678.39654426533,73487.10429514697,71790.40572528906,64767.912300576245,373016.2603278471,136758.61200792933,88786.35928468218,107239.55717558351,TASK1
2026-05-26T09:50:57.657+00:00,720,48297,114678.66476519879,73487.10429514697,71789.66811772205,64768.9851843101,373022.9658511837,136755.72863289458,88785.08523524823,107238.81956801648,TASK1
2026-05-26T09:50:57.657+00:00,720,48298,114677.65893669831,73487.6407370139,71789.19873108849,64766.10180927536,373022.7646854836,136751.50415319254,88785.88989804863,107239.62423081687,TASK1
2026-05-26T09:50:57.657+00:00,720,48299,114677.18955006474,73490.32294634853,71789.7351729554,64769.856902343854,373020.1495313823,136755.52746719448,88790.18143298404,107243.64754481883,TASK1
2026-05-26T09:50:57.657+00:00,720,48300,114676.98838436464,73490.59116728201,71792.14916135657,64772.00266981156,373024.9775081846,136757.67323466222,88791.52253765137,107248.47552162118,TASK1
2026-05-26T09:50:57.657+00:00,720,48301,114674.64145119683,73495.15092315088,71792.41738229005,64776.02598381352,373031.9512524547,136762.23299053108,88792.59542138522,107250.08484722195,TASK1
2026-05-26T09:50:57.657+00:00,720,48302,114676.51899773108,73494.68153651732,71792.21621658995,64767.50996917605,373038.92499672476,136752.91231309323,88796.3505144537,107251.69417282274,TASK1
2026-05-26T09:50:57.657+00:00,720,48303,114675.78139016406,73493.40748708337,71790.942167156,64765.4312569417,373045.0940781944,136751.37004272582,88799.03272378835,107252.23061468966,TASK1
2026-05-26T09:50:57.657+00:00,720,48304,114677.39071576484,73494.21214988377,71790.942167156,64768.91812907673,373049.1173921964,136750.90065609224,88800.64204938913,107254.1081612239,TASK1
2026-05-26T09:50:57.657+00:00,720,48305,114677.39071576484,73491.06055391557,71792.28327182331,64769.45457094366,373060.38267140184,136729.5100366485,88801.98315405645,107251.49300712264,TASK1
2026-05-26T09:50:57.657+00:00,720,48306,114676.11666633088,73484.15386487887,71793.62437649062,64760.40211443926,373073.2572762081,136751.50415319254,88798.56333715479,107250.21895768869,TASK1
2026-05-26T09:50:57.657+00:00,720,48307,114676.38488726436,73484.42208581233,71794.16081835756,64754.30008820296,373081.8403460789,136758.74611839605,88797.82572958776,107251.29184142254,TASK1
2026-05-26T09:50:57.657+00:00,720,48308,114677.18955006474,73484.6903067458,71795.23370209141,64755.90941380374,373086.6683228813,136753.71697589362,88799.97149705548,107255.3151554245,TASK1
2026-05-26T09:50:57.657+00:00,720,48309,114674.84261689693,73486.56785328005,71795.77014395835,64756.44585567067,373091.49629968364,136747.34672872385,88799.77033135538,107257.19270195875,TASK1
2026-05-26T09:50:57.657+00:00,720,48310,114674.37323026337,73486.09846664648,71796.0383648918,64755.97646903711,373100.3475904879,136739.90359782023,88801.37965695615,107258.80202755952,TASK1
2026-05-26T09:50:57.657+00:00,720,48311,114674.37323026337,73484.82441721253,71798.45235329297,64753.89775680276,373110.00354409264,136742.58580715486,88797.42339818757,107254.04110599055,TASK1
2026-05-26T09:50:57.657+00:00,720,48312,114673.90384362981,73489.92061494834,71800.06167889376,64757.65284987126,373115.90440462885,136746.8773420903,88792.93069755204,107248.2073006877,TASK1
2026-05-26T09:50:57.657+00:00,720,48313,114674.17206456327,73493.67570801683,71799.5922922602,64761.139722006286,373122.34170703194,136751.43709795916,88792.93069755204,107247.73791405415,TASK1
2026-05-26T09:50:57.657+00:00,720,48314,114673.43445699626,73493.94392895029,71800.66517599406,64761.67616387321,373128.51078850165,136751.43709795916,88791.92486905157,107251.22478618918,TASK1
2026-05-26T09:50:57.657+00:00,720,48315,114676.51899773108,73495.21797838424,71805.62726326313,64764.760704608045,373137.4961897727,136752.64409215975,88794.4059126861,107256.52214962509,TASK1
2026-05-26T09:50:57.657+00:00,720,48316,114676.31783203098,73490.99349868219,71807.50480979738,64765.028925541505,373147.15214337735,136750.29715899195,88794.204746986,107254.44343739074,TASK1
2026-05-26T09:50:57.657+00:00,720,48317,114672.09335232893,73483.81858871205,71805.15787662957,64760.268003972524,373157.0763179155,136742.58580715486,88787.56627888278,107248.07319022098,TASK1
2026-05-26T09:50:57.657+00:00,720,48318,114669.2099772942,73481.7398764777,71801.46983879444,64753.361314935835,373161.6360737844,136743.9269118222,88780.39136891262,107241.43472211774,TASK1
2026-05-26T09:50:57.657+00:00,720,48319,114667.66770692678,73477.78361770911,71801.26867309434,64747.79573056647,373161.9042947178,136738.6295483863,88775.36222641017,107236.94202148223,TASK1
2026-05-26T09:50:57.657+00:00,720,48320,114665.05255282551,73477.04601014209,71800.79928646078,64746.25346019905,373161.7031290177,136737.08727801885,88774.3563979097,107235.66797204828,TASK1
2026-05-26T09:50:57.657+00:00,720,48321,114665.05255282551,73478.11889387594,71799.7934579603,64747.05812299944,373163.3124546185,136735.54500765144,88776.77038631086,107234.93036448126,TASK1
2026-05-26T09:50:57.657+00:00,720,48322,114665.58899469244,73479.72821947672,71799.7934579603,64750.54499513447,373164.1171174189,136726.2243302136,88780.79370031282,107239.49012035014,TASK1
2026-05-26T09:50:57.657+00:00,720,48323,114665.11960805887,73481.60576601097,71798.51940852634,64755.90941380374,373165.1900011528,136722.80451331192,88779.51965087886,107239.02073371658,TASK1
2026-05-26T09:50:57.657+00:00,720,48324,114664.38200049185,73478.9906119097,71797.51358002586,64751.416713168226,373166.26288488664,136738.09310651934,88777.97738051145,107237.47846334917,TASK1
2026-05-26T09:50:57.657+00:00,720,48325,114659.62107892286,73479.7952747101,71796.77597245882,64749.87444280081,373166.26288488664,136741.5799786544,88777.23977294442,107234.86330924788,TASK1
2026-05-26T09:50:57.657+00:00,720,48326,114659.41991322278,73482.47748404472,71798.65351899307,64751.48376840159,373167.6039895539,136748.28550199096,88774.89283977661,107232.78459701355,TASK1
2026-05-26T09:50:57.657+00:00,720,48327,114659.68813415624,73481.47165554424,71800.79928646078,64750.4779399011,373169.4815360882,136746.74323162355,88777.3068281778,107233.58925981393,TASK1
2026-05-26T09:50:57.657+00:00,720,48328,114659.68813415624,73480.73404797721,71798.98879515991,64751.01438176803,373168.7439285212,136752.10765029283,88781.33014217975,107234.66214354779,TASK1
2026-05-26T09:50:57.657+00:00,720,48329,114660.49279695663,73480.26466134365,71798.78762945981,64754.23303296959,373172.2308006562,136747.0785077904,88783.47590964746,107233.11987318037,TASK1
2026-05-26T09:50:57.657+00:00,720,48330,114661.83390162395,73475.77196070814,71802.00628066137,64749.74033233408,373178.39988212584,136732.6616326167,88784.28057244785,107230.50471907911,TASK1
2026-05-26T09:50:57.657+00:00,720,48331,114661.36451499039,73476.30840257506,71805.76137372987,64749.53916663398,373185.6418473294,136731.38758318278,88785.08523524823,107227.35312311091,TASK1
2026-05-26T09:50:57.657+00:00,720,48332,114660.3586864899,73474.22969034071,71808.71180399797,64748.265117200026,373191.27448693215,136724.2126732126,88785.88989804863,107226.07907367696,TASK1
2026-05-26T09:50:57.657+00:00,720,48333,114659.62107892286,73471.34631530599,71808.71180399797,64741.894870030264,373199.0528940026,136730.9181965492,88781.66541834657,107224.805024243,TASK1
2026-05-26T09:50:57.657+00:00,720,48334,114658.34702948891,73469.5358240051,71806.36487083016,64740.352599662845,373205.22197547223,136731.18641748268,88779.31848517877,107222.4580910752,TASK1
2026-05-26T09:50:57.657+00:00,720,48335,114654.12254978687,73473.02269614013,71804.55437952928,64742.76658806402,373213.5368244096,136734.6732896177,88772.68001707555,107221.98870444164,TASK1
2026-05-26T09:50:57.657+00:00,720,48336,114655.26248875409,73473.82735894051,71805.69431849649,64743.705361331144,373229.63008041744,136736.75200185203,88773.41762464256,107224.87207947636,TASK1
2026-05-26T09:50:57.657+00:00,720,48337,114657.14003528834,73474.36380080745,71805.22493186293,64742.16309096373,373243.5775689575,136736.55083615193,88779.0502642453,107229.70005627871,TASK1
2026-05-26T09:50:57.657+00:00,720,48338,114657.4082562218,73474.63202174091,71804.48732429591,64742.43131189719,373252.42885976186,136737.08727801885,88779.58670611223,107226.81668124397,TASK1
2026-05-26T09:50:57.657+00:00,720,48339,114655.86598585438,73473.0897513735,71802.40861206157,64743.235974697585,373259.67082496535,136736.0814495184,88779.11731947867,107223.39686434231,TASK1
2026-05-26T09:50:57.657+00:00,720,48340,114653.78727362004,73471.54748100608,71801.13456262762,64742.23014619709,373272.0089879047,136736.6178913853,88779.6537613456,107228.22484114466,TASK1
2026-05-26T09:50:57.657+00:00,720,48341,114653.58610791994,73471.07809437253,71802.47566729493,64738.81032929543,373286.2246973783,136728.10187674782,88778.37971191165,107231.7117132797,TASK1
2026-05-26T09:50:57.657+00:00,720,48342,114653.58610791994,73467.92649840433,71802.74388822839,64736.999837994554,373299.90396498493,136713.4167806407,88774.1552322096,107231.97993421316,TASK1
2026-05-26T09:50:57.657+00:00,720,48343,114652.31205848599,73464.23846056919,71800.12873412712,64731.43425362518,373311.9739069908,136731.38758318278,88766.71210130598,107232.78459701355,TASK1
2026-05-26T09:50:57.657+00:00,720,48344,114650.23334625164,73462.69619020178,71799.3911265601,64729.35554139084,373321.361639662,136729.84531281533,88763.2922844043,107237.34435288243,TASK1
2026-05-26T09:50:57.657+00:00,720,48345,114650.23334625164,73462.22680356822,71800.73223122742,64733.11063445933,373333.43158166786,136730.38175468228,88764.0969472047,107238.68545754974,TASK1
2026-05-26T09:50:57.657+00:00,720,48346,114651.03800905203,73464.64079196939,71802.87799869513,64736.32928566089,373344.9650818068,136733.0639640169,88764.63338907163,107242.7087715517,TASK1
2026-05-26T09:50:57.657+00:00,720,48347,114646.81352934998,73464.90901290285,71797.58063525922,64732.10480595884,373355.15747727844,136726.69371684713,88745.65675802907,107230.43766384575,TASK1
2026-05-26T09:50:57.657+00:00,720,48348,114645.00303804911,73465.17723383632,71792.55149275677,64730.83075652489,373365.34987275006,136726.69371684713,88735.79963872429,107218.16655613978,TASK1
2026-05-26T09:50:57.657+00:00,720,48349,114645.00303804911,73463.36674253544,71790.47278052244,64728.21560242362,373373.39650075394,136733.1310192503,88739.28651085931,107218.16655613978,TASK1
2026-05-26T09:50:57.657+00:00,720,48350,114644.53365141554,73459.41048376684,71790.7410014559,64725.06400645542,373387.07576836064,136722.73745807857,88737.47601955844,107219.23943987364,TASK1
2026-05-26T09:50:57.657+00:00,720,48351,114642.18671824773,73457.33177153251,71791.5456642563,64722.448852354144,373402.09614063456,136714.48966437456,88735.39730732409,107216.89250670583,TASK1
2026-05-26T09:50:57.949+00:00,721,48352,114641.44911068071,73458.94109713328,71791.5456642563,64723.25351515454,373407.19233837037,136716.9036527757,88737.27485385834,107214.54557353802,TASK1
2026-05-26T09:50:57.949+00:00,721,48353,114640.97972404715,73462.69619020178,71791.5456642563,64723.789957021465,373407.4605593039,136725.2185017131,88738.3477375922,107213.53974503753,TASK1
2026-05-26T09:50:57.949+00:00,721,48354,114635.9505815447,73461.69036170129,71791.3444985562,64723.789957021465,373410.41098957194,136725.75494358002,88738.88417945911,107207.16949786777,TASK1
2026-05-26T09:50:57.949+00:00,721,48355,114631.72610184265,73458.53876573309,71792.14916135657,64725.399282622246,373413.89786170697,136722.60334761182,88743.17571439454,107207.16949786777,TASK1
2026-05-26T09:50:57.949+00:00,721,48356,114631.25671520909,73459.61164946694,71792.41738229005,64726.74038728957,373418.1893966424,136723.4080104122,88752.02700519883,107210.11992813587,TASK1
2026-05-26T09:50:57.949+00:00,721,48357,114631.055549509,73463.09852160198,71790.87511192262,64729.15437569074,373419.5305013097,136723.4080104122,88754.97743546694,107206.96833216767,TASK1
2026-05-26T09:50:57.949+00:00,721,48358,114631.59199137591,73460.75158843417,71787.9917368879,64730.495480358055,373423.82203624514,136722.13396097827,88758.46430760197,107207.23655310113,TASK1
2026-05-26T09:50:57.949+00:00,721,48359,114632.66487510977,73461.28803030109,71786.9859083874,64731.836585025376,373430.2593386483,136716.03193474197,88757.45847910148,107206.49894553411,TASK1
2026-05-26T09:50:57.949+00:00,721,48360,114631.92726754275,73459.47753900022,71788.32701305472,64731.836585025376,373438.3059666522,136714.48966437456,88756.45265060099,107206.02955890054,TASK1
2026-05-26T09:50:57.949+00:00,721,48361,114632.7989855765,73459.34342853348,71792.08210612321,64731.63541932528,373453.05811799265,136723.4750656456,88759.26897040237,107210.18698336923,TASK1
2026-05-26T09:50:57.949+00:00,721,48362,114632.5978198764,73458.06937909953,71792.8867689236,64730.361369891325,373464.5916181316,136709.8628532723,88761.1465169366,107214.74673923811,TASK1
2026-05-26T09:50:57.949+00:00,721,48363,114630.78732857552,73455.72244593172,71790.5398357558,64729.6237623243,373474.5157926698,136704.83371076986,88761.95117973699,107216.3560648389,TASK1
2026-05-26T09:50:57.949+00:00,721,48364,114630.78732857552,73454.71661743123,71790.5398357558,64727.008608223034,373487.6586184095,136723.34095517886,88761.48179310343,107217.16072763929,TASK1
2026-05-26T09:50:57.949+00:00,721,48365,114630.31794194196,73454.24723079767,71790.3386700557,64725.466337855614,373499.19211854844,136719.1164754768,88760.20774366948,107215.3502363384,TASK1
2026-05-26T09:50:57.949+00:00,721,48366,114630.31794194196,73455.05189359807,71789.86928342214,64724.72873028859,373505.3612000181,136717.03776324246,88759.73835703592,107213.80796597099,TASK1
2026-05-26T09:50:57.949+00:00,721,48367,114627.97100877416,73453.50962323065,71789.39989678857,64724.996951222056,373510.99383962085,136715.22727194158,88760.00657796938,107215.1490706383,TASK1
2026-05-26T09:50:57.949+00:00,721,48368,114625.62407560635,73450.89446912937,71786.51652175385,64723.45468085464,373516.09003735665,136709.6616875722,88751.75878426537,107211.19281186973,TASK1
2026-05-26T09:50:57.949+00:00,721,48369,114622.74070057161,73450.89446912937,71784.4378095195,64721.37596862029,373526.81887469516,136709.6616875722,88745.92497896255,107205.89544843382,TASK1
2026-05-26T09:50:57.949+00:00,721,48370,114621.46665113766,73453.04023659708,71786.5835769872,64723.521736088005,373538.0841539007,136715.29432717495,88749.14363016411,107207.50477403459,TASK1
2026-05-26T09:50:57.949+00:00,721,48371,114621.46665113766,73454.38134126441,71790.87511192262,64725.66750355571,373552.03164244076,136714.5567196079,88753.16694416606,107209.11409963538,TASK1
2026-05-26T09:50:57.949+00:00,721,48372,114620.46082263718,73454.18017556431,71793.02087939034,64725.19811692215,373566.7837937813,136712.47800737357,88755.04449070031,107209.6505415023,TASK1
2026-05-26T09:50:57.949+00:00,721,48373,114618.91855226975,73456.05772209856,71792.28327182331,64726.00277972254,373583.413491656,136717.3059841759,88757.9949209684,107213.13741363733,TASK1
2026-05-26T09:50:57.949+00:00,721,48374,114617.37628190234,73455.32011453153,71792.28327182331,64726.807442522935,373599.7749685973,136717.1048184758,88752.42933659903,107212.66802700378,TASK1
2026-05-26T09:50:57.949+00:00,721,48375,114615.297569668,73453.50962323065,71791.81388518975,64729.48965185757,373617.4775502059,136717.37303940929,88749.81418249776,107212.66802700378,TASK1
2026-05-26T09:50:57.949+00:00,721,48376,114616.10223246839,73450.35802726245,71793.42321079053,64724.46050935512,373639.20344581647,136713.9532225076,88746.93080746302,107213.47268980416,TASK1
2026-05-26T09:50:57.949+00:00,721,48377,114614.02352023404,73452.50379473016,71795.30075732477,64722.91823898771,373664.4162135621,136709.72874280557,88744.0474324283,107212.46686130368,TASK1
2026-05-26T09:50:57.949+00:00,721,48378,114614.55996210098,73452.0344080966,71796.6418619921,64721.64418955376,373688.0196557069,136706.84536777085,88744.58387429522,107210.65637000279,TASK1
2026-05-26T09:50:57.949+00:00,721,48379,114613.28591266702,73451.56502146303,71795.90425442507,64722.71707328761,373709.2091094505,136705.03487646996,88744.38270859512,107206.96833216767,TASK1
2026-05-26T09:50:57.949+00:00,721,48380,114612.01186323307,73455.58833546498,71797.24535909238,64725.131061688786,373731.471446928,136706.1077602038,88747.86958073016,107208.84587870192,TASK1
2026-05-26T09:50:57.949+00:00,721,48381,114609.39670913179,73459.34342853348,71798.85468469317,64727.81327102342,373752.92912160506,136706.9124230042,88749.7471272644,107206.49894553411,TASK1
2026-05-26T09:50:57.949+00:00,721,48382,114607.85443876438,73458.60582096646,71800.19578936048,64728.08149195689,373772.5092497479,136708.52174860498,88755.11154593367,107204.42023329977,TASK1
2026-05-26T09:50:57.949+00:00,721,48383,114608.12265969784,73460.48336750071,71800.46401029396,64731.568364091916,373787.79784295533,136712.00862074,88757.25731340138,107203.95084666621,TASK1
2026-05-26T09:50:57.949+00:00,721,48384,114610.26842716556,73458.67287619982,71800.46401029396,64732.90946875923,373799.86778496124,136709.39346663875,88755.4468221005,107203.74968096611,TASK1
2026-05-26T09:50:57.949+00:00,721,48385,114611.87775276633,73455.25305929816,71801.00045216088,64728.14854719025,373813.2788316344,136702.48677760205,88749.61301679767,107197.64765472981,TASK1
2026-05-26T09:50:57.949+00:00,721,48386,114610.87192426584,73455.52128023162,71801.53689402781,64729.2214309241,373826.4216573741,136702.48677760205,88750.41767959806,107196.64182622932,TASK1
2026-05-26T09:50:57.949+00:00,721,48387,114609.86609576536,73455.32011453153,71802.3415568282,64729.020265224004,373842.2466924485,136703.29144040245,88752.29522613231,107198.78759369702,TASK1
2026-05-26T09:50:57.949+00:00,721,48388,114611.00603473258,73454.9848383647,71804.68848999601,64731.568364091916,373858.2728932229,136702.88910900225,88756.18442966753,107200.53102976453,TASK1
2026-05-26T09:50:57.949+00:00,721,48389,114610.26842716556,73452.36968426342,71803.41444056206,64732.3730268923,373866.85596309375,136699.20107116713,88754.10571743318,107198.18409659673,TASK1
2026-05-26T09:50:57.949+00:00,721,48390,114609.53081959853,73451.36385576295,71803.41444056206,64732.3730268923,373874.6343701642,136694.7083705316,88758.93369423553,107201.93918966522,TASK1
2026-05-26T09:50:57.949+00:00,721,48391,114607.98854923112,73451.90029762987,71804.21910336244,64732.64124782577,373885.8996493697,136699.80456826743,88764.56633383827,107207.57182926797,TASK1
2026-05-26T09:50:57.949+00:00,721,48392,114606.98272073062,73451.4309109963,71804.21910336244,64729.48965185757,373899.0424751094,136697.4576350996,88765.90743850559,107212.93624793724,TASK1
2026-05-26T09:50:57.949+00:00,721,48393,114605.70867129667,73450.42508249581,71801.87217019463,64728.21560242362,373906.01621937944,136691.89205073024,88765.90743850559,107211.93041943674,TASK1
2026-05-26T09:50:57.949+00:00,721,48394,114603.62995906232,73453.10729183046,71797.37946955912,64731.16603269172,373910.8441961818,136710.39929513924,88764.0969472047,107210.11992813587,TASK1
2026-05-26T09:50:57.949+00:00,721,48395,114602.35590962837,73453.64373369738,71795.03253639131,64733.04357922596,373924.255242855,136705.9065945037,88764.0969472047,107212.8021374705,TASK1
2026-05-26T09:50:57.949+00:00,721,48396,114601.61830206135,73454.44839649777,71793.22204509044,64737.60333509484,373939.5438360624,136716.3672109088,88764.0969472047,107214.14324213783,TASK1
2026-05-26T09:50:57.949+00:00,721,48397,114603.4958485956,73457.39882676587,71791.41155378956,64737.13394846128,373951.8819990018,136717.7083155761,88763.09111870422,107213.4056345708,TASK1
2026-05-26T09:50:57.949+00:00,721,48398,114601.41713636125,73460.08103610051,71789.06462062175,64735.05523622694,373963.4154991407,136716.7024870756,88759.67130180255,107209.4493758022,TASK1
2026-05-26T09:50:57.949+00:00,721,48399,114599.33842412691,73459.87987040041,71787.25412932086,64736.664561827725,373976.55832488043,136716.7024870756,88755.71504303397,107203.34734956591,TASK1
2026-05-26T09:50:57.949+00:00,721,48400,114596.45504909217,73461.75741693466,71785.98007988691,64738.273887428506,373993.45624368865,136718.3118126764,88754.70921453348,107200.73219546463,TASK1
2026-05-26T09:50:57.949+00:00,721,48401,114594.37633685784,73459.94692563378,71786.7847426873,64737.26805892801,374010.35416249686,136716.23310044207,88751.55761856528,107197.58059949643,TASK1
2026-05-26T09:50:57.949+00:00,721,48402,114592.02940369003,73461.55625123456,71785.51069325335,64736.53045136099,374025.91097663774,136717.3059841759,88750.28356913132,107196.03832912902,TASK1
2026-05-26T09:50:57.949+00:00,721,48403,114592.29762462349,73461.08686460099,71784.50486475286,64735.79284379396,374040.1266861113,136716.03193474197,88752.6975575325,107196.84299192941,TASK1
2026-05-26T09:50:57.949+00:00,721,48404,114593.37050835734,73460.8856989009,71784.30369905276,64732.90946875923,374052.7330699841,136708.58880383836,88753.23399939942,107196.1053843624,TASK1
2026-05-26T09:50:57.949+00:00,721,48405,114592.36467985685,73459.87987040041,71784.30369905276,64733.44591062616,374065.8758957238,136707.85119627134,88753.77044126636,107192.41734652726,TASK1
2026-05-26T09:50:57.949+00:00,721,48406,114591.35885135636,73459.14226283338,71785.91302465355,64734.51879436001,374076.87295399583,136708.38763813826,88753.56927556626,107189.53397149254,TASK1
2026-05-26T09:50:57.949+00:00,721,48407,114591.62707228983,73459.41048376684,71787.25412932086,64732.9765239926,374085.7242448001,136706.57714683737,88756.25148490089,107190.07041335946,TASK1
2026-05-26T09:50:57.949+00:00,721,48408,114593.2363978906,73463.4337977688,71786.24830082039,64730.361369891325,374092.96621000365,136704.23021366957,88753.63633079962,107187.99170112511,TASK1
2026-05-26T09:50:57.949+00:00,721,48409,114594.041060691,73463.70201870227,71786.51652175385,64731.702474558646,374103.96326827566,136702.15150143523,88751.28939763182,107185.37654702384,TASK1
2026-05-26T09:50:57.949+00:00,721,48410,114591.6941275232,73461.62330646793,71787.85762642116,64732.50713735903,374117.37431494886,136691.75794026352,88747.06491792976,107179.00629985408,TASK1
2026-05-26T09:50:57.949+00:00,721,48411,114586.39676408729,73459.27637330012,71787.65646072106,64732.50713735903,374129.17603602126,136694.17192866467,88740.69467076,107171.29494801699,TASK1
2026-05-26T09:50:57.949+00:00,721,48412,114582.4405053187,73461.69036170129,71785.30952755325,64735.99400949406,374137.49088495865,136702.48677760205,88739.68884225951,107170.28911951651,TASK1
2026-05-26T09:50:57.949+00:00,721,48413,114585.3909355868,73455.85655639846,71785.30952755325,64729.89198325777,374144.4646292287,136697.4576350996,88742.63927252761,107171.63022418383,TASK1
2026-05-26T09:50:57.949+00:00,721,48414,114584.92154895324,73454.5825069645,71783.49903625238,64725.66750355571,374150.9019316318,136696.98824846605,88742.63927252761,107172.97132885114,TASK1
2026-05-26T09:50:57.949+00:00,721,48415,114581.50173205158,73454.38134126441,71781.15210308458,64728.886154757274,374163.5083155046,136696.51886183248,88742.90749346107,107172.77016315104,TASK1
2026-05-26T09:50:57.949+00:00,721,48416,114579.95946168416,73453.37551276392,71780.14627458408,64730.76370129152,374180.4062343128,136695.24481239854,88742.43810682751,107173.30660501798,TASK1
2026-05-26T09:50:57.951+00:00,721,48417,114578.68541225021,73451.29680052957,71778.06756234974,64729.2214309241,374194.89016471984,136683.5101465595,88741.96872019395,107175.45237248568,TASK1
2026-05-26T09:50:57.951+00:00,721,48418,114574.19271161468,73448.41342549484,71773.03841984729,64725.265172155516,374208.5694323265,136677.4081203232,88739.08534515921,107175.72059341914,TASK1
2026-05-26T09:50:57.951+00:00,721,48419,114572.78455171401,73449.95569586226,71769.68565817899,64726.941552989665,374224.1262464674,136701.54800433494,88737.27485385834,107171.29494801699,TASK1
2026-05-26T09:50:57.951+00:00,721,48420,114572.04694414698,73450.76035866265,71767.60694594466,64725.399282622246,374238.61017687444,136699.73751303405,88737.81129572526,107164.65647991377,TASK1
2026-05-26T09:50:57.951+00:00,721,48421,114571.84577844688,73453.97900986421,71767.40578024456,64728.08149195689,374253.6305491484,136698.46346360008,88737.81129572526,107160.16377927826,TASK1
2026-05-26T09:50:57.951+00:00,721,48422,114572.11399938035,73455.32011453153,71766.66817267753,64731.836585025376,374266.7733748881,136701.4138938682,88741.56638879376,107161.23666301211,TASK1
2026-05-26T09:50:57.951+00:00,721,48423,114572.91866218073,73456.92944013231,71764.58946044318,64733.98235249308,374280.45264249475,136707.3147544044,88742.10283066069,107159.96261357816,TASK1
2026-05-26T09:50:57.951+00:00,721,48424,114575.06442964844,73457.46588199923,71763.5836319427,64730.56253559142,374296.5458985026,136693.97076296457,88744.51681906186,107160.49905544509,TASK1
2026-05-26T09:50:57.951+00:00,721,48425,114573.79038021449,73456.19183256528,71764.65651567656,64729.020265224004,374314.51670104463,136693.97076296457,88746.66258652956,107166.66813691476,TASK1
2026-05-26T09:50:57.951+00:00,721,48426,114572.51633078053,73453.30845753055,71765.72939941041,64725.332227388884,374336.51081758866,136690.55094606293,88745.12031616215,107166.66813691476,TASK1
2026-05-26T09:50:58.236+00:00,722,48427,114572.78455171401,73454.38134126441,71765.99762034387,64724.05817795493,374358.7731550662,136688.47223382856,88742.50516206087,107166.46697121466,TASK1
2026-05-26T09:50:58.236+00:00,722,48428,114572.31516508045,73453.91195463085,71765.52823371031,64723.32057038791,374375.93929480785,136683.97953319305,88741.4993335604,107165.99758458108,TASK1
2026-05-26T09:50:58.236+00:00,722,48429,114571.30933657996,73457.9352686328,71765.52823371031,64725.19811692215,374395.25120201724,136685.58885879384,88744.71798476196,107167.07046831495,TASK1
2026-05-26T09:50:58.236+00:00,722,48430,114571.84577844688,73458.20348956627,71768.21044304494,64723.11940468781,374415.6359929605,136683.77836749295,88747.13197316312,107165.25997701407,TASK1
2026-05-26T09:50:58.236+00:00,722,48431,114571.64461274678,73459.27637330012,71769.28332677881,64720.77247152,374434.41145830293,136678.74922499052,88742.10283066069,107159.6943926447,TASK1
2026-05-26T09:50:58.236+00:00,722,48432,114571.17522611322,73463.56790823553,71770.62443144612,64723.18645992117,374455.0644701796,136686.52763206096,88739.75589749287,107157.88390134381,TASK1
2026-05-26T09:50:58.236+00:00,722,48433,114570.70583947966,73465.9818966367,71767.74105641138,64722.71707328761,374469.01195871976,136684.71714076007,88734.45853405696,107157.68273564371,TASK1
2026-05-26T09:50:58.236+00:00,722,48434,114569.16356911225,73466.7865594371,71764.05301857626,64720.370140119805,374483.76411006023,136686.32646636086,88728.35650782067,107156.40868620976,TASK1
2026-05-26T09:50:58.236+00:00,722,48435,114569.43179004571,73469.46876877174,71762.24252727538,64721.979465720586,374500.393807935,136687.66757102817,88724.13202811862,107154.06175304195,TASK1
2026-05-26T09:50:58.236+00:00,722,48436,114570.2364528461,73474.29674557409,71760.4320359745,64724.92989598869,374517.55994767667,136689.81333849588,88723.12619961813,107148.76438960605,TASK1
2026-05-26T09:50:58.236+00:00,722,48437,114568.96240341215,73479.92938517682,71757.2804400063,64727.34388438986,374532.58031995065,136694.10487343132,88722.92503391803,107145.34457270439,TASK1
2026-05-26T09:50:58.236+00:00,722,48438,114568.76123771205,73479.1917776098,71754.9335068385,64726.33805588937,374547.6006922246,136689.34395186233,88722.18742635101,107146.14923550478,TASK1
2026-05-26T09:50:58.236+00:00,722,48439,114569.8341214459,73480.53288227711,71754.46412020494,64724.25934365503,374565.5714947667,136674.6588557552,88720.37693505012,107146.14923550478,TASK1
2026-05-26T09:50:58.236+00:00,722,48440,114570.4376185462,73484.22092011225,71754.66528590504,64726.4721663561,374585.0175124428,136700.87745200127,88722.18742635101,107147.75856110555,TASK1
2026-05-26T09:50:58.236+00:00,722,48441,114570.70583947966,73488.2442341142,71756.00639057235,64725.734558789074,374602.45187311794,136704.63254506976,88724.60141475218,107149.36788670634,TASK1
2026-05-26T09:50:58.236+00:00,722,48442,114570.70583947966,73490.92644344883,71757.61571617312,64722.58296282088,374617.47224539187,136703.09027470235,88724.86963568564,107147.55739540546,TASK1
2026-05-26T09:50:58.236+00:00,722,48443,114574.72915348162,73494.68153651732,71760.29792550777,64723.11940468781,374626.0553152627,136703.09027470235,88729.16117062105,107145.47868317112,TASK1
2026-05-26T09:50:58.236+00:00,722,48444,114576.07025814893,73496.2908621181,71762.17547204201,64722.65001805424,374635.1748270005,136702.88910900225,88733.45270555648,107148.42911343923,TASK1
2026-05-26T09:50:58.236+00:00,722,48445,114576.60670001587,73500.58239705353,71765.66234417704,64723.99112272156,374649.39053647406,136706.64420207075,88739.08534515921,107155.9392995762,TASK1
2026-05-26T09:50:58.236+00:00,722,48446,114576.60670001587,73504.60571105548,71767.27166977782,64723.25351515454,374665.75201341533,136706.64420207075,88738.61595852565,107158.35328797737,TASK1
2026-05-26T09:50:58.236+00:00,722,48447,114572.11399938035,73503.33166162153,71762.77896914231,64718.760814519024,374682.918153157,136702.68794330215,88729.83172295472,107153.86058734186,TASK1
2026-05-26T09:50:58.236+00:00,722,48448,114568.69418247868,73502.86227498797,71758.2862685068,64715.609218550824,374703.3029441003,136700.07278920087,88729.63055725463,107154.66525014225,TASK1
2026-05-26T09:50:58.236+00:00,722,48449,114566.61547024435,73501.588225554,71755.1346725386,64712.189401649164,374719.1279791746,136694.50720483152,88728.62472875413,107158.42034321075,TASK1
2026-05-26T09:50:58.236+00:00,722,48450,114565.60964174385,73501.588225554,71755.1346725386,64710.91535221521,374732.00258398085,136692.69671353063,88724.13202811862,107157.68273564371,TASK1
2026-05-26T09:50:58.236+00:00,722,48451,114564.06737137644,73503.73399302173,71755.40289347206,64714.6704452837,374747.5593981218,136691.15444316322,88720.98043215042,107152.3853722078,TASK1
2026-05-26T09:50:58.236+00:00,722,48452,114563.06154287595,73504.5386558221,71755.20172777196,64717.6208755518,374760.970444795,136692.22732689706,88715.95128964797,107148.69733437269,TASK1
2026-05-26T09:50:58.236+00:00,722,48453,114563.32976380941,73505.07509768904,71753.65945740454,64710.445965581646,374771.1628402666,136681.83376572534,88711.45858901246,107142.59530813638,TASK1
2026-05-26T09:50:58.236+00:00,722,48454,114560.9828306416,73503.53282732163,71751.5807451702,64707.56259054691,374780.0141310709,136674.12241388825,88704.01545810884,107134.07929349891,TASK1
2026-05-26T09:50:58.236+00:00,722,48455,114559.70878120765,73503.80104825509,71750.84313760318,64706.55676204642,374793.96161961096,136677.6092860233,88696.30410627175,107128.24548819607,TASK1
2026-05-26T09:50:58.236+00:00,722,48456,114560.7816649415,73504.60571105548,71750.37375096961,64704.209828878615,374806.83622441726,136676.6034575228,88695.0300568378,107127.50788062905,TASK1
2026-05-26T09:50:58.236+00:00,722,48457,114561.85454867536,73504.13632442192,71750.64197190308,64702.131116644276,374820.2472710904,136673.4518615546,88694.56067020424,107130.45831089716,TASK1
2026-05-26T09:50:58.236+00:00,722,48458,114559.50761550755,73505.7456500227,71748.29503873528,64704.81332597891,374834.462980564,136680.1573848912,88694.56067020424,107129.9889242636,TASK1
2026-05-26T09:50:58.236+00:00,722,48459,114556.35601953935,73506.28209188963,71745.679884634,64704.075718411885,374844.9235969691,136681.23026862505,88688.99508583487,107123.61867709382,TASK1
2026-05-26T09:50:58.236+00:00,722,48460,114555.0819701054,73505.5444843226,71745.94810556746,64705.416823079206,374852.970224973,136682.83959422584,88685.30704799976,107121.27174392602,TASK1
2026-05-26T09:50:58.236+00:00,722,48461,114555.0819701054,73507.95847272378,71748.89853583556,64707.294369613446,374859.6757483096,136686.0582454274,88681.88723109808,107119.7294735586,TASK1
2026-05-26T09:50:58.236+00:00,722,48462,114553.27147880453,73511.17712392534,71749.43497770249,64709.70835801462,374870.40458564815,136691.42266409667,88679.00385606335,107116.57787759039,TASK1
2026-05-26T09:50:58.236+00:00,722,48463,114550.38810376979,73514.93221699382,71747.89270733508,64713.46345108312,374879.5240973859,136697.32352463287,88680.8814025976,107118.18720319119,TASK1
2026-05-26T09:50:58.236+00:00,722,48464,114548.04117060198,73516.27332166115,71747.15509976805,64713.26228538302,374883.54741138784,136698.66462930018,88682.22250726492,107121.1376334593,TASK1
2026-05-26T09:50:58.236+00:00,722,48465,114548.91288863574,73518.28497866212,71749.70319863595,64715.877439484284,374892.6669231256,136702.01739096848,88684.50238519936,107126.56910736192,TASK1
2026-05-26T09:50:58.236+00:00,722,48466,114549.1811095692,73519.08964146252,71751.04430330326,64718.023206952,374907.95551633305,136703.89493750274,88687.18459453399,107131.39708416427,TASK1
2026-05-26T09:50:58.236+00:00,722,48467,114547.90706013524,73516.47448736125,71750.30669573625,64715.408052850726,374922.97588860703,136703.69377180265,88687.45281546746,107138.10260750087,TASK1
2026-05-26T09:50:58.236+00:00,722,48468,114547.90706013524,73514.66399606036,71749.0326463023,64711.988235949066,374936.6551562137,136701.34683863484,88689.3303620017,107143.46702617014,TASK1
2026-05-26T09:50:58.236+00:00,722,48469,114548.9799438691,73512.58528382602,71751.17841377,64708.5684190474,374953.2848540884,136699.80456826743,88692.2807922698,107148.83144483941,TASK1
2026-05-26T09:50:58.236+00:00,722,48470,114549.24816480257,73513.12172569295,71754.1288440381,64704.88038121228,374972.5967612978,136697.72585603307,88696.57232720523,107155.26874724255,TASK1
2026-05-26T09:50:58.236+00:00,722,48471,114547.70589443514,73513.92638849335,71755.73816963889,64703.874552711786,374988.1535754387,136685.72296926056,88704.0825133422,107163.31537524646,TASK1
2026-05-26T09:50:58.236+00:00,722,48472,114548.51055723554,73515.8039350276,71757.61571617312,64705.21565737911,374998.07774997683,136688.67339952866,88704.8871761426,107164.92470084723,TASK1
2026-05-26T09:50:58.236+00:00,722,48473,114548.778778169,73516.87681876145,71758.42037897352,64707.093203913355,375003.17394771264,136703.42555086917,88705.96005987645,107165.72936364762,TASK1
2026-05-26T09:50:58.236+00:00,722,48474,114546.43184500119,73516.13921119442,71758.688599907,64706.89203821326,375009.34302918235,136700.27395490097,88701.19913830748,107159.35911647786,TASK1
2026-05-26T09:50:58.236+00:00,722,48475,114541.40270249876,73514.06049896007,71757.14632953957,64701.86289571081,375021.1447502547,136697.92702173317,88696.16999580503,107154.32997397541,TASK1
2026-05-26T09:50:58.236+00:00,722,48476,114539.86043213133,73515.93804549432,71756.14050103909,64701.39350907725,375034.28757599444,136695.84830949883,88693.82306263722,107153.5923664084,TASK1
2026-05-26T09:50:58.236+00:00,722,48477,114541.20153679866,73516.47448736125,71756.14050103909,64700.924122443685,375039.9202155972,136688.67339952866,88687.98925733438,107150.17254950674,TASK1
2026-05-26T09:50:58.236+00:00,722,48478,114542.54264146597,73518.08381296202,71756.67694290601,64699.38185207627,375044.2117505326,136686.86290822778,88679.74146363037,107139.77898833502,TASK1
2026-05-26T09:50:58.236+00:00,722,48479,114543.34730426637,73518.3520338955,71756.47577720591,64698.37602357578,375051.99015760305,136687.39935009473,88671.76189085984,107136.35917143336,TASK1
2026-05-26T09:50:58.236+00:00,722,48480,114543.61552519983,73520.22958042973,71756.27461150581,64700.790011976955,375056.28169253847,136682.10198665882,88663.78231808929,107134.28045919901,TASK1
2026-05-26T09:50:58.236+00:00,722,48481,114541.00037109856,73519.22375192925,71755.26878300532,64701.59467477735,375062.1825530747,136680.82793722485,88657.68029185299,107132.20174696467,TASK1
2026-05-26T09:50:58.236+00:00,722,48482,114539.99454259807,73518.48614436222,71754.26295450484,64699.515962543,375072.10672761285,136674.18946912163,88652.11470748362,107124.75861606105,TASK1
2026-05-26T09:50:58.236+00:00,722,48483,114535.50184196256,73519.02258622916,71752.45246320395,64696.63258750827,375080.9580184171,136677.13989938973,88647.08556498117,107119.99769449206,TASK1
2026-05-26T09:50:58.236+00:00,722,48484,114533.15490879475,73521.43657463032,71750.10553003615,64697.169029375196,375088.73642548756,136683.3089808594,88643.93396901297,107115.77321479001,TASK1
2026-05-26T09:50:58.236+00:00,722,48485,114532.14908029426,73522.50945836418,71750.10553003615,64699.046575909444,375098.3923790923,136684.38186459325,88640.78237304477,107111.81695602142,TASK1
2026-05-26T09:50:58.236+00:00,722,48486,114531.41147272724,73524.11878396496,71751.17841377,64702.80166897793,375108.3165536304,136688.94162046214,88641.85525677862,107109.47002285361,TASK1
2026-05-26T09:50:58.236+00:00,722,48487,114529.06453955942,73525.19166769882,71749.09970153566,64707.093203913355,375115.022076967,136694.30603913142,88644.2692451798,107110.274685654,TASK1
2026-05-26T09:50:58.236+00:00,722,48488,114528.3269319924,73525.72810956574,71748.6303149021,64708.970750447595,375116.36318163434,136696.18358566565,88645.87857078058,107112.95689498863,TASK1
2026-05-26T09:50:58.236+00:00,722,48489,114525.71177789113,73524.99050199872,71748.16092826854,64710.31185511492,375119.3136119024,136699.13401593376,88644.60452134663,107115.10266245634,TASK1
2026-05-26T09:50:58.236+00:00,722,48490,114525.24239125756,73522.91178976437,71748.429149202,64709.306026614424,375123.06870497094,136700.74334153454,88645.14096321356,107112.48750835507,TASK1
2026-05-26T09:50:58.236+00:00,722,48491,114525.24239125756,73519.22375192925,71751.91602133703,64705.886209712764,375123.6051468378,136701.54800433494,88654.52869588479,107118.38836889129,TASK1
2026-05-26T09:50:58.236+00:00,722,48492,114528.39398722576,73521.97301649726,71756.47577720591,64707.02614867999,375128.03079224,136704.02904796947,88665.5257541568,107127.84315679588,TASK1
2026-05-26T09:50:58.236+00:00,722,48493,114529.73509189309,73522.50945836418,71756.00639057235,64703.33811084486,375133.39521090925,136701.95033573514,88666.86685882413,107127.64199109578,TASK1
2026-05-26T09:50:58.236+00:00,722,48494,114529.53392619299,73520.16252519637,71756.00639057235,64699.113631142805,375146.80625758244,136698.53051883346,88666.39747219055,107119.9306392587,TASK1
2026-05-26T09:50:58.236+00:00,722,48495,114527.7234348921,73520.16252519637,71756.54283243927,64697.83958170885,375162.0948507899,136701.2127281681,88669.61612339212,107117.04726422396,TASK1
2026-05-26T09:50:58.236+00:00,722,48496,114527.7234348921,73519.69313856281,71757.0792743062,64696.029090407974,375173.3601299954,136697.79291126644,88674.44410019447,107125.36211316135,TASK1
2026-05-26T09:50:58.236+00:00,722,48497,114528.79631862596,73522.91178976437,71757.8839371066,64698.979520676075,375182.21142079966,136680.9620476916,88674.71232112794,107126.4349968952,TASK1
2026-05-26T09:50:58.236+00:00,722,48498,114529.06453955942,73526.66688283287,71759.49326270737,64705.416823079206,375194.81780467246,136694.10487343132,88674.71232112794,107125.96561026164,TASK1
2026-05-26T09:50:58.236+00:00,722,48499,114529.60098142635,73528.54442936712,71760.29792550777,64707.56259054691,375203.93731641024,136702.15150143523,88672.6336088936,107128.11137772935,TASK1
2026-05-26T09:50:58.236+00:00,722,48500,114526.71760639161,73530.15375496789,71760.29792550777,64709.171916147694,375210.1063978799,136707.5159201045,88670.55489665925,107127.37377016232,TASK1
2026-05-26T09:50:58.236+00:00,722,48501,114524.3706732238,73527.80682180008,71759.56031794075,64700.655901510225,375214.3979328153,136704.09610320284,88671.89600132656,107127.37377016232,TASK1
2026-05-26T09:50:58.515+00:00,723,48502,114522.29196098946,73526.53277236613,71757.74982663986,64697.236084608565,375217.3483630834,136695.31186763188,88667.93974255798,107124.75861606105,TASK1
2026-05-26T09:50:58.517+00:00,723,48503,114522.29196098946,73525.25872293218,71756.74399813937,64696.766697975,375221.9081189523,136690.01450419598,88666.93391405749,107125.29505792797,TASK1
2026-05-26T09:50:58.517+00:00,723,48504,114523.09662378985,73526.86804853297,71755.73816963889,64701.05823291042,375225.66321202077,136697.79291126644,88664.85520182314,107125.09389222787,TASK1
2026-05-26T09:50:58.517+00:00,723,48505,114523.90128659025,73524.25289443169,71755.00056207186,64700.588846276856,375233.17339815776,136691.69088503014,88659.0213965203,107121.40585439275,TASK1
2026-05-26T09:50:58.517+00:00,723,48506,114521.55435342244,73519.76019379617,71752.38540797059,64691.53638977246,375241.7564680286,136673.78713772143,88648.09139348166,107115.57204908991,TASK1
2026-05-26T09:50:58.517+00:00,723,48507,114519.74386212156,73517.41326062837,71749.23381200239,64689.457677538114,375248.4619913652,136673.3177510879,88639.5753788442,107108.93358098668,TASK1
2026-05-26T09:50:58.517+00:00,723,48508,114520.01208305503,73517.9497024953,71748.76442536883,64689.99411940504,375254.63107283483,136675.19529762212,88632.93691074096,107102.29511288345,TASK1
2026-05-26T09:50:58.517+00:00,723,48509,114519.274475488,73519.29080716262,71748.29503873528,64694.55387527392,375260.80015430454,136675.99996042252,88624.95733797042,107092.97443544559,TASK1
2026-05-26T09:50:58.517+00:00,723,48510,114516.92754232019,73519.08964146252,71747.8256521017,64697.504305542025,375266.43279390724,136675.2623528555,88620.46463733491,107090.35928134432,TASK1
2026-05-26T09:50:58.517+00:00,723,48511,114516.45815568663,73517.81559202856,71747.8256521017,64697.504305542025,375270.99254977616,136679.82210872436,88621.00107920183,107092.77326974549,TASK1
2026-05-26T09:50:58.517+00:00,723,48512,114516.45815568663,73521.57068509706,71747.35626546814,64700.454735810126,375272.60187537695,136685.72296926056,88630.65703280653,107098.94235121516,TASK1
2026-05-26T09:50:58.517+00:00,723,48513,114516.99459755355,73526.39866189941,71747.6244864016,64704.209828878615,375272.13248874334,136692.42849259716,88638.43543987696,107099.74701401555,TASK1
2026-05-26T09:50:58.517+00:00,723,48514,114516.52521092,73528.27620843364,71748.16092826854,64705.01449167901,375270.053776509,136695.64714379873,88642.99519574585,107099.74701401555,TASK1
2026-05-26T09:50:58.517+00:00,723,48515,114517.59809465385,73530.69019683482,71749.77025386931,64707.160259146716,375266.90218054084,136700.2068996676,88653.99225401787,107108.06186295292,TASK1
2026-05-26T09:50:58.517+00:00,723,48516,114519.74386212156,73533.64062710293,71752.98890507089,64708.50136381404,375271.19371547626,136702.88910900225,88661.7706610883,107110.4758513541,TASK1
2026-05-26T09:50:58.517+00:00,723,48517,114519.74386212156,73536.0546155041,71755.40289347206,64709.84246848136,375276.82635507896,136705.57131833688,88664.98931228988,107111.81695602142,TASK1
2026-05-26T09:50:58.517+00:00,723,48518,114520.54852492195,73537.66394110488,71756.20755627245,64710.378910348285,375278.1674597463,136709.8628532723,88666.59863789065,107113.96272348912,TASK1
2026-05-26T09:50:58.517+00:00,723,48519,114521.88962958928,73539.0050457722,71756.74399813937,64712.52467781599,375275.82052657846,136710.93573700616,88670.08551002569,107117.1813746907,TASK1
2026-05-26T09:50:58.517+00:00,723,48520,114520.61558015533,73537.19455447132,71757.01221907284,64714.13400341677,375275.3511399449,136709.92990850567,88672.2312774934,107119.3271421584,TASK1
2026-05-26T09:50:58.517+00:00,723,48521,114520.41441445523,73533.50651663619,71756.00639057235,64709.90952371472,375275.3511399449,136704.90076600324,88674.10882402764,107120.66824682573,TASK1
2026-05-26T09:50:58.517+00:00,723,48522,114518.06748128742,73532.76890906917,71752.58657367069,64710.445965581646,375274.077090511,136705.43720787016,88669.88434432559,107120.66824682573,TASK1
2026-05-26T09:50:58.517+00:00,723,48523,114517.39692895375,73534.24412420322,71753.05596030425,64712.72584351609,375277.563962646,136704.09610320284,88667.26919022431,107120.3329706589,TASK1
2026-05-26T09:50:58.517+00:00,723,48524,114516.39110045327,73534.04295850312,71752.58657367069,64712.72584351609,375282.39193944837,136700.4080653677,88665.19047798998,107120.3329706589,TASK1
2026-05-26T09:50:58.517+00:00,723,48525,114515.9217138197,73530.35492066799,71752.11718703713,64709.306026614424,375286.6834743838,136692.96493446408,88658.82023082022,107116.64493282376,TASK1
2026-05-26T09:50:58.517+00:00,723,48526,114515.9217138197,73530.15375496789,71753.19007077099,64705.08154691238,375291.7796721196,136687.39935009473,88652.71820458391,107110.81112752092,TASK1
2026-05-26T09:50:58.517+00:00,723,48527,114514.64766438575,73529.14792646741,71753.45829170445,64700.3206253434,375302.7767303916,136681.02910292495,88644.4704108799,107102.56333381691,TASK1
2026-05-26T09:50:58.517+00:00,723,48528,114513.3736149518,73525.45988863228,71752.1842422705,64695.827924707875,375315.65133519785,136661.247809082,88640.51415211131,107098.60707504833,TASK1
2026-05-26T09:50:58.517+00:00,723,48529,114509.95379805013,73519.62608332945,71748.76442536883,64691.60344500582,375329.59882373794,136663.12535561624,88635.48500960886,107094.65081627974,TASK1
2026-05-26T09:50:58.517+00:00,723,48530,114511.56312365092,73517.27915016164,71747.22215500141,64687.11074437031,375341.9369866773,136674.39063482173,88634.21096017491,107094.65081627974,TASK1
2026-05-26T09:50:58.517+00:00,723,48531,114512.63600738478,73520.76602229667,71748.0268178018,64690.865837438796,375350.5200565481,136678.4139488237,88634.74740204184,107097.60124654784,TASK1
2026-05-26T09:50:58.517+00:00,723,48532,114513.1724492517,73523.71645256477,71749.09970153566,64693.01160490651,375358.0302426851,136670.1661551197,88630.79114327325,107095.79075524696,TASK1
2026-05-26T09:50:58.517+00:00,723,48533,114511.89839981774,73525.86222003248,71748.36209396864,64692.00577640602,375364.7357660217,136668.89210568572,88632.13224794058,107096.59541804735,TASK1
2026-05-26T09:50:58.517+00:00,723,48534,114509.55146664994,73529.08087123404,71746.81982360122,64695.49264854105,375371.4412893583,136678.54805929042,88633.20513167443,107094.78492674646,TASK1
2026-05-26T09:50:58.517+00:00,723,48535,114508.81385908292,73530.42197590136,71746.61865790113,64698.17485787568,375380.560801096,136679.62094302426,88631.93108224048,107092.70621451213,TASK1
2026-05-26T09:50:58.517+00:00,723,48536,114508.81385908292,73532.03130150214,71747.15509976805,64699.78418347647,375392.094301235,136683.37603609276,88630.92525373999,107090.89572321124,TASK1
2026-05-26T09:50:58.517+00:00,723,48537,114508.34447244936,73531.83013580204,71744.80816660024,64702.466392811104,375406.3100107086,136687.93579196165,88631.46169560691,107089.08523191037,TASK1
2026-05-26T09:50:58.517+00:00,723,48538,114508.61269338282,73530.01964450117,71742.7294543659,64703.00283467803,375419.45283644827,136683.44309132613,88634.94856774194,107092.5721040454,TASK1
2026-05-26T09:50:58.517+00:00,723,48539,114505.72931834808,73529.01381600068,71742.26006773234,64700.38768057676,375433.66854592186,136681.90082095872,88640.04476547775,107091.83449647838,TASK1
2026-05-26T09:50:58.517+00:00,723,48540,114503.91882704721,73529.28203693414,71741.79068109878,64701.72878524408,375448.1524763289,136683.24192562603,88641.65409107854,107088.95112144364,TASK1
2026-05-26T09:50:58.517+00:00,723,48541,114503.44944041365,73529.08087123404,71740.78485259828,64705.21565737911,375462.9046276694,136685.38769309374,88645.94562601396,107087.67707200968,TASK1
2026-05-26T09:50:58.517+00:00,723,48542,114501.10250724584,73532.03130150214,71740.31546596473,64708.16608764721,375479.8025464776,136691.28855362994,88647.28673068127,107087.67707200968,TASK1
2026-05-26T09:50:58.517+00:00,723,48543,114499.56023687842,73532.83596430253,71738.77319559731,64711.65295978224,375497.23690715275,136686.79585299443,88648.89605628206,107090.09106041085,TASK1
2026-05-26T09:50:58.517+00:00,723,48544,114501.03545201247,73536.79222307113,71738.37086419712,64718.894924985754,375512.9278317604,136690.68505652965,88655.80274531874,107093.44382207915,TASK1
2026-05-26T09:50:58.517+00:00,723,48545,114499.76140257852,73534.71351083678,71736.82859382969,64710.378910348285,375532.5079599032,136688.33812336184,88656.87562905259,107094.24848487954,TASK1
2026-05-26T09:50:58.517+00:00,723,48546,114497.14624847725,73533.97590326975,71735.01810252882,64709.64130278126,375554.7702973807,136690.21566989608,88653.72403308439,107091.90155171174,TASK1
2026-05-26T09:50:58.517+00:00,723,48547,114497.14624847725,73533.97590326975,71734.54871589526,64710.71418651511,375574.0822045901,136688.40517859522,88652.44998365044,107089.28639761047,TASK1
2026-05-26T09:50:58.517+00:00,723,48548,114496.94508277715,73531.62897010194,71733.00644552783,64707.83081148038,375592.85766993253,136684.44891982662,88649.83482954917,107088.28056910998,TASK1
2026-05-26T09:50:58.517+00:00,723,48549,114496.74391707705,73529.5502578676,71731.19595422696,64706.55676204642,375618.07043767814,136682.9066494592,88649.36544291562,107087.54296154295,TASK1
2026-05-26T09:50:58.517+00:00,723,48550,114496.74391707705,73529.08087123404,71732.00061702736,64707.093203913355,375651.3298334276,136681.63260002524,88649.63366384908,107084.92780744168,TASK1
2026-05-26T09:50:58.517+00:00,723,48551,114497.28035894397,73527.00215899969,71732.53705889428,64705.550933545936,375684.0527873102,136679.5538877909,88648.09139348166,107082.31265334041,TASK1
2026-05-26T09:50:58.805+00:00,724,48552,114497.8168008109,73523.58234209803,71732.06767226072,64703.20400037813,375703.0964735861,136675.32940808884,88646.01268124732,107081.84326670684,TASK1
2026-05-26T09:50:58.805+00:00,724,48553,114496.81097231041,73520.6989670633,71730.79362282676,64699.515962543,375717.04396212625,136659.03498638092,88647.35378591463,107086.40302257573,TASK1
2026-05-26T09:50:58.805+00:00,724,48554,114495.268701943,73517.01092922817,71729.25135245935,64696.09614564134,375730.18678786594,136673.2506958545,88649.49955338235,107092.30388311193,TASK1
2026-05-26T09:50:58.805+00:00,724,48555,114494.53109437597,73516.00510072769,71730.59245712667,64694.28565434046,375748.1575904081,136676.2011261226,88652.18176271698,107096.05897618041,TASK1
2026-05-26T09:50:58.805+00:00,724,48556,114492.18416120816,73519.49197286271,71730.86067806013,64696.43142180817,375770.1517069521,136675.99996042252,88653.79108831777,107098.20474364814,TASK1
2026-05-26T09:50:58.805+00:00,724,48557,114491.17833270768,73525.39283339892,71728.78196582578,64705.8191544794,375791.6093816292,136689.14278616224,88658.35084418664,107101.4233948497,TASK1
2026-05-26T09:50:58.805+00:00,724,48558,114492.519437375,73527.53860086662,71728.04435825876,64707.69670101364,375810.38484697166,136687.06407392788,88651.98059701688,107099.34468261535,TASK1
2026-05-26T09:50:58.805+00:00,724,48559,114490.44072514065,73525.72810956574,71726.23386695787,64704.81332597891,375828.62387044716,136682.30315235892,88646.14679171405,107095.65664478023,TASK1
2026-05-26T09:50:58.805+00:00,724,48560,114488.63023383978,73527.33743516653,71726.03270125778,64707.76375624701,375851.6908707251,136686.0582454274,88645.6774050805,107090.35928134432,TASK1
2026-05-26T09:50:58.805+00:00,724,48561,114487.35618440583,73526.59982759951,71726.30092219125,64710.445965581646,375869.66167326714,136691.15444316322,88641.18470444497,107084.52547604148,TASK1
2026-05-26T09:50:58.805+00:00,724,48562,114484.74103030455,73523.18001069783,71724.2222099569,64706.75792774652,375883.8773827407,136677.8104517234,88636.96022474291,107082.17854287368,TASK1
2026-05-26T09:50:58.805+00:00,724,48563,114482.39409713674,73521.90596126388,71721.60705585564,64703.33811084486,375899.4341968816,136675.4635185556,88638.5695503437,107082.17854287368,TASK1
2026-05-26T09:50:58.805+00:00,724,48564,114481.38826863625,73524.31994966506,71721.8752767891,64704.14277364525,375914.4545691556,136680.82793722485,88638.3683846436,107080.90449343972,TASK1
2026-05-26T09:50:58.805+00:00,724,48565,114481.65648956972,73523.58234209803,71724.8257070572,64706.28854111296,375928.1338367622,136681.09615815833,88640.78237304477,107079.89866493923,TASK1
2026-05-26T09:50:58.805+00:00,724,48566,114481.92471050318,73522.84473453101,71726.43503265797,64706.08737541286,375943.1542090362,136681.90082095872,88645.34212891366,107078.35639457182,TASK1
2026-05-26T09:50:58.805+00:00,724,48567,114481.92471050318,73523.6493973314,71725.4292041575,64705.886209712764,375954.95593010855,136683.77836749295,88651.77943131678,107079.42927830567,TASK1
2026-05-26T09:50:58.805+00:00,724,48568,114481.92471050318,73525.52694386564,71725.4292041575,64706.95909344662,375963.8072209129,136685.38769309374,88655.53452438528,107083.18437137417,TASK1
2026-05-26T09:50:58.805+00:00,724,48569,114484.00342273753,73530.15375496789,71727.3738059251,64712.591733049354,375979.4981455205,136688.74045476204,88660.42955642099,107084.72664174158,TASK1
2026-05-26T09:50:58.805+00:00,724,48570,114483.53403610397,73525.92927526584,71727.3738059251,64711.85412548233,375997.737168996,136679.9562191911,88661.50244015484,107086.60418827583,TASK1
2026-05-26T09:50:58.805+00:00,724,48571,114482.79642853694,73524.65522583188,71727.64202685856,64710.580076048376,376017.58551807236,136683.97953319305,88656.74151858587,107084.52547604148,TASK1
2026-05-26T09:50:58.805+00:00,724,48572,114484.40575413773,73522.30829266408,71728.44668965896,64707.69670101364,376034.2152159471,136680.29149535793,88655.73569008538,107082.17854287368,TASK1
2026-05-26T09:50:58.805+00:00,724,48573,114482.8634837703,73524.18583919833,71726.63619835807,64704.27688411198,376049.5038091545,136680.09032965783,88652.85231505064,107079.56338877241,TASK1
2026-05-26T09:50:58.805+00:00,724,48574,114483.6681465707,73522.10712696398,71726.63619835807,64701.66173001071,376065.8652860958,136675.59762902232,88655.53452438528,107080.36805157279,TASK1
2026-05-26T09:50:58.805+00:00,724,48575,114483.4669808706,73522.10712696398,71726.43503265797,64701.66173001071,376085.7136351721,136672.7142539876,88655.33335868518,107081.97737717358,TASK1
2026-05-26T09:50:58.805+00:00,724,48576,114482.72937330358,73522.91178976437,71726.23386695787,64705.416823079206,376108.51241451653,136667.9533324186,88652.18176271698,107080.1668858727,TASK1
2026-05-26T09:50:58.805+00:00,724,48577,114482.72937330358,73521.90596126388,71728.11141349212,64704.94743644564,376129.4336473267,136671.17198362015,88650.37127141611,107080.43510680617,TASK1
2026-05-26T09:50:58.805+00:00,724,48578,114482.72937330358,73522.17418219736,71728.11141349212,64703.40516607823,376145.795124268,136677.07284415636,88649.36544291562,107079.96572017261,TASK1
2026-05-26T09:50:58.805+00:00,724,48579,114481.18710293616,73521.70479556378,71727.10558499164,64701.32645384388,376160.279054675,136673.6530272547,88647.55495161473,107082.37970857378,TASK1
2026-05-26T09:50:58.805+00:00,724,48580,114479.64483256874,73521.50362986368,71727.91024779202,64700.588846276856,376174.76298508205,136671.57431502035,88645.74446031386,107086.67124350919,TASK1
2026-05-26T09:50:58.805+00:00,724,48581,114479.17544593518,73522.30829266408,71728.44668965896,64700.588846276856,376198.9028690938,136671.37314932025,88645.74446031386,107085.39719407524,TASK1
2026-05-26T09:50:58.805+00:00,724,48582,114478.97428023508,73522.57651359755,71727.70908209193,64700.38768057676,376222.5063112386,136672.98247492104,88649.49955338235,107087.81118247642,TASK1
2026-05-26T09:50:58.805+00:00,724,48583,114478.50489360152,73519.96135949627,71727.23969545837,64697.236084608565,376243.69576498226,136671.17198362015,88651.91354178352,107091.02983367798,TASK1
2026-05-26T09:50:58.805+00:00,724,48584,114478.03550696796,73520.4978013632,71727.23969545837,64697.236084608565,376266.2263233932,136672.78130922094,88650.90771328303,107089.75578424403,TASK1
2026-05-26T09:50:58.805+00:00,724,48585,114478.03550696796,73520.76602229667,71725.96564602442,64696.49847704154,376289.829765538,136663.4606317831,88648.56078011522,107090.56044704442,TASK1
2026-05-26T09:50:58.805+00:00,724,48586,114475.42035286668,73522.64356883091,71724.423375657,64695.760869474514,376314.2378704832,136663.259466083,88641.922312012,107089.28639761047,TASK1
2026-05-26T09:50:58.805+00:00,724,48587,114469.85476849732,73521.63774033042,71722.0764424892,64696.29731134144,376332.7451148922,136651.2565793105,88643.53163761277,107089.55461854393,TASK1
2026-05-26T09:50:58.805+00:00,724,48588,114468.84893999682,73522.17418219736,71721.0706139887,64695.559703774416,376345.8879406319,136672.98247492104,88642.79403004576,107089.08523191037,TASK1
2026-05-26T09:50:58.805+00:00,724,48589,114469.92182373068,73525.66105433238,71720.8694482886,64698.51013404252,376358.4943245047,136678.34689359032,88643.59869284615,107086.20185687563,TASK1
2026-05-26T09:50:58.805+00:00,724,48590,114470.72648653107,73529.68436833433,71721.13766922207,64702.53344804447,376373.5146967787,136685.8570797273,88645.74446031386,107084.12314464129,TASK1
2026-05-26T09:50:58.805+00:00,724,48591,114470.72648653107,73531.83013580204,71723.01521575631,64707.89786671374,376391.2172783873,136687.73462626155,88649.23133244888,107083.65375800773,TASK1
2026-05-26T09:50:58.805+00:00,724,48592,114468.37955336327,73532.63479860243,71722.00938725582,64708.970750447595,376405.96942972776,136686.4605768276,88649.49955338235,107080.50216203953,TASK1
2026-05-26T09:50:58.805+00:00,724,48593,114466.5690620624,73532.63479860243,71718.58957035416,64707.69670101364,376423.4037904029,136684.38186459325,88647.68906208147,107080.30099633943,TASK1
2026-05-26T09:50:58.805+00:00,724,48594,114465.29501262844,73531.89719103542,71716.51085811983,64705.08154691238,376444.59324414656,136682.03493142544,88643.19636144595,107075.27185383698,TASK1
2026-05-26T09:50:58.805+00:00,724,48595,114463.2163003941,73534.31117943658,71714.43214588548,64704.075718411885,376466.855581624,136682.57137329236,88641.65409107854,107072.38847880226,TASK1
2026-05-26T09:50:58.805+00:00,724,48596,114465.3620678618,73540.68142660634,71715.1697534525,64708.836639980866,376486.23454406677,136686.92996346115,88643.33047191268,107072.18731310216,TASK1
2026-05-26T09:50:58.805+00:00,724,48597,114464.89268122824,73545.24118247522,71713.35926215163,64710.17774464819,376499.37736980646,136684.04658842643,88643.33047191268,107074.0648596364,TASK1
2026-05-26T09:50:58.805+00:00,724,48598,114465.1609021617,73546.58228714255,71710.47588711689,64708.903695214234,376511.4473118124,136683.04075992593,88642.86108527912,107074.33308056986,TASK1
2026-05-26T09:50:58.805+00:00,724,48599,114463.61863179429,73547.11872900947,71708.12895394908,64708.903695214234,376521.639707284,136691.35560886332,88639.44126837746,107074.60130150332,TASK1
2026-05-26T09:50:58.805+00:00,724,48600,114460.19881489262,73548.99627554372,71706.85490451513,64709.171916147694,376534.7825330237,136691.35560886332,88637.63077707659,107073.8636939363,TASK1
2026-05-26T09:50:58.805+00:00,724,48601,114460.19881489262,73552.48314767875,71706.65373881503,64711.04946268194,376553.02155649924,136694.30603913142,88641.1176492116,107076.27768233747,TASK1
2026-05-26T09:50:58.805+00:00,724,48602,114459.99764919253,73551.74554011172,71704.84324751415,64710.31185511492,376567.7737078397,136686.32646636086,88643.26341667931,107082.71498474061,TASK1
2026-05-26T09:50:58.805+00:00,724,48603,114459.2600416255,73551.0079325447,71702.49631434634,64706.89203821326,376582.52585918026,136683.7113122596,88643.26341667931,107089.15228714373,TASK1
2026-05-26T09:50:58.805+00:00,724,48604,114460.60114629281,73550.8067668446,71703.03275621327,64703.740442245056,376597.27801052073,136681.3643790918,88644.33630041317,107092.63915927875,TASK1
2026-05-26T09:50:58.805+00:00,724,48605,114462.74691376054,73552.95253431231,71704.91030274752,64702.19817187764,376610.9572781274,136680.09032965783,88644.60452134663,107096.12603141379,TASK1
2026-05-26T09:50:58.805+00:00,724,48606,114462.74691376054,73554.56185991308,71704.44091611396,64697.97369217558,376622.7589991998,136676.93873368963,88638.7707160438,107095.65664478023,TASK1
2026-05-26T09:50:58.805+00:00,724,48607,114462.27752712696,73555.09830178002,71703.97152948039,64694.28565434046,376632.68317373795,136675.12824238875,88636.423782876,107093.30971161243,TASK1
2026-05-26T09:50:58.805+00:00,724,48608,114462.54574806044,73558.31695298158,71703.23392191337,64692.743383973044,376638.58403427416,136678.6151145238,88633.80862877473,107088.01234817652,TASK1
2026-05-26T09:50:58.805+00:00,724,48609,114462.54574806044,73558.31695298158,71702.49631434634,64691.20111360563,376642.3391273426,136675.73173948904,88629.58414907267,107083.25142660753,TASK1
2026-05-26T09:50:58.805+00:00,724,48610,114463.88685272775,73560.46272044929,71701.75870677932,64691.73755547256,376646.63066227804,136674.72591098855,88626.43255310447,107080.90449343972,TASK1
2026-05-26T09:50:58.805+00:00,724,48611,114464.42329459467,73562.608487917,71700.21643641191,64689.390622304745,376647.43532507843,136673.72008248806,88623.28095713627,107079.09400213884,TASK1
2026-05-26T09:50:58.805+00:00,724,48612,114465.764399262,73565.29069725164,71698.67416604448,64687.84835193733,376642.6744035095,136667.61805625178,88619.32469836768,107079.36222307231,TASK1
2026-05-26T09:50:58.805+00:00,724,48613,114467.10550392931,73565.5589181851,71700.55171257873,64686.57430250338,376642.6744035095,136656.1516113462,88619.59291930114,107082.04443240694,TASK1
2026-05-26T09:50:58.805+00:00,724,48614,114467.9101667297,73566.90002285242,71701.62459631258,64684.7638112025,376652.33035711414,136677.6092860233,88616.70954426641,107078.89283643874,TASK1
2026-05-26T09:50:58.805+00:00,724,48615,114468.7148295301,73569.58223218705,71701.62459631258,64684.5626455024,376662.7909735192,136676.33523658934,88614.09439016513,107069.84037993435,TASK1
2026-05-26T09:50:58.805+00:00,724,48616,114466.63611729575,73571.99622058823,71702.16103817952,64684.5626455024,376671.910485257,136675.59762902232,88614.36261109861,107062.93369089765,TASK1
2026-05-26T09:50:58.805+00:00,724,48617,114465.63028879526,73575.75131365671,71702.42925911298,64685.903750169724,376678.34778766014,136676.67051275616,88614.63083203207,107061.39142053024,TASK1
2026-05-26T09:50:58.805+00:00,724,48618,114465.89850972872,73580.3110695256,71704.03858471377,64689.122401371285,376677.34195915965,136678.27983835695,88615.43549483246,107059.04448736244,TASK1
2026-05-26T09:50:58.805+00:00,724,48619,114461.40580909321,73579.84168289205,71703.03275621327,64689.92706417168,376677.14079345955,136677.54223078993,88618.65414603402,107060.38559202975,TASK1
2026-05-26T09:50:58.805+00:00,724,48620,114457.71777125809,73579.10407532501,71702.29514864624,64689.189456604654,376683.04165399575,136677.34106508983,88619.19058790096,107054.82000766038,TASK1
2026-05-26T09:50:58.805+00:00,724,48621,114454.83439622335,73582.32272652657,71700.75287827883,64692.67632873968,376690.28361919924,136680.02327442446,88617.916538467,107048.44976049062,TASK1
2026-05-26T09:50:58.805+00:00,724,48622,114453.5603467894,73586.614261462,71699.21060791142,64697.77252647549,376698.5984681366,136682.97370469256,88620.59874780163,107048.71798142408,TASK1
2026-05-26T09:50:58.805+00:00,724,48623,114452.01807642198,73589.5646917301,71698.47300034438,64701.25939861052,376709.8637473421,136685.65591402721,88620.59874780163,107050.0590860914,TASK1
2026-05-26T09:50:58.805+00:00,724,48624,114449.93936418764,73587.75420042922,71699.00944221132,64698.64424450925,376718.98325907986,136684.38186459325,88619.05647743422,107050.32730702487,TASK1
2026-05-26T09:50:58.805+00:00,724,48625,114449.73819848754,73588.82708416307,71700.6187678121,64697.638416008755,376724.3476777492,136684.38186459325,88617.78242800027,107049.32147852438,TASK1
2026-05-26T09:50:58.805+00:00,724,48626,114449.73819848754,73590.97285163078,71700.14938117853,64701.66173001071,376732.6625266865,136686.2594111275,88617.78242800027,107052.54012972594,TASK1
2026-05-26T09:50:59.087+00:00,725,48627,114451.01224792149,73592.64923246493,71700.21643641191,64707.89786671374,376744.0619163587,136689.61217279578,88621.40341060203,107062.12902809726,TASK1
2026-05-26T09:50:59.087+00:00,725,48628,114450.54286128793,73590.30229929712,71701.55754107922,64706.89203821326,376756.1318583646,136688.33812336184,88623.01273620281,107068.29810956694,TASK1
2026-05-26T09:50:59.087+00:00,725,48629,114449.00059092052,73587.95536612932,71700.28349164527,64705.08154691238,376770.34756783815,136683.57720179285,88620.39758210153,107066.21939733259,TASK1
2026-05-26T09:50:59.087+00:00,725,48630,114446.11721588578,73584.80377016112,71696.32723287668,64701.66173001071,376785.0997191787,136678.0116174235,88616.97776519987,107059.04448736244,TASK1
2026-05-26T09:50:59.087+00:00,725,48631,114441.89273618373,73581.38395325946,71692.90741597502,64694.218599107095,376801.1929751865,136672.7142539876,88613.55794829821,107054.28356579345,TASK1
2026-05-26T09:50:59.087+00:00,725,48632,114439.27758208246,73581.18278755936,71692.43802934146,64689.457677538114,376811.6535915916,136669.83087895284,88610.40635233001,107050.86374889179,TASK1
2026-05-26T09:50:59.087+00:00,725,48633,114442.49623328402,73581.98745035975,71693.77913400877,64687.647186237235,376818.0908939947,136667.48394578503,88606.98653542835,107046.90749012321,TASK1
2026-05-26T09:50:59.087+00:00,725,48634,114444.10555888481,73581.78628465965,71695.38845960956,64686.64135773675,376821.30954519624,136664.86879168378,88603.5667185267,107043.48767322153,TASK1
2026-05-26T09:50:59.087+00:00,725,48635,114443.09973038432,73580.5122352257,71696.19312240995,64685.63552923626,376828.28328946634,136660.9125329152,88601.48800629235,107044.56055695539,TASK1
2026-05-26T09:50:59.087+00:00,725,48636,114442.09390188383,73578.43352299136,71696.46134334341,64681.67927046767,376836.3299174702,136656.9562741466,88599.409294058,107043.01828658798,TASK1
2026-05-26T09:50:59.087+00:00,725,48637,114441.08807338333,73575.28192702316,71696.72956427687,64676.91834889869,376841.69433613954,136654.6093409788,88599.2081283579,107041.74423715402,TASK1
2026-05-26T09:50:59.087+00:00,725,48638,114436.59537274782,73572.66677292189,71694.919072976,64673.23031106356,376847.32697574224,136653.87173341177,88599.74457022484,107044.42644648867,TASK1
2026-05-26T09:50:59.087+00:00,725,48639,114436.39420704772,73570.58806068754,71697.06484044371,64673.76675293049,376854.83716187923,136653.67056771167,88602.69500049294,107045.23110928906,TASK1
2026-05-26T09:50:59.087+00:00,725,48640,114438.27175358197,73573.00204908871,71701.89281724606,64676.98540413205,376861.0062433489,136658.498544514,88609.668744763,107050.86374889179,TASK1
2026-05-26T09:50:59.087+00:00,725,48641,114437.80236694841,73575.14781655643,71705.91613124801,64681.008718134006,376863.6884526835,136663.8629631833,88614.49672156533,107053.27773729297,TASK1
2026-05-26T09:50:59.087+00:00,725,48642,114437.60120124831,73577.83002589106,71706.45257311493,64683.15448560172,376863.956673617,136668.9591609191,88616.64248903305,107053.07657159287,TASK1
2026-05-26T09:50:59.087+00:00,725,48643,114436.32715181436,73580.24401429224,71706.25140741483,64686.64135773675,376860.2686357819,136674.59180052183,88615.63666053256,107054.41767626019,TASK1
2026-05-26T09:50:59.087+00:00,725,48644,114435.58954424733,73578.1653020579,71708.12895394908,64687.7142414706,376858.72636541445,136674.59180052183,88616.44132333295,107054.41767626019,TASK1
2026-05-26T09:50:59.087+00:00,725,48645,114435.12015761377,73578.43352299136,71709.73827954987,64686.70841297011,376860.0674700818,136673.0495301544,88615.43549483246,107052.33896402584,TASK1
2026-05-26T09:50:59.087+00:00,725,48646,114433.3096663129,73578.96996485829,71711.07938421718,64687.513075770505,376863.2861212833,136671.77548072045,88609.8699104631,107048.11448432379,TASK1
2026-05-26T09:50:59.087+00:00,725,48647,114432.3038378124,73580.3110695256,71710.34177665015,64687.513075770505,376869.1869818195,136674.72591098855,88608.59586102914,107044.69466742213,TASK1
2026-05-26T09:50:59.087+00:00,725,48648,114433.37672154626,73583.93205212736,71711.28054991728,64690.597616505336,376878.5076592574,136679.08450115734,88613.22267213138,107049.05325759092,TASK1
2026-05-26T09:50:59.087+00:00,725,48649,114431.83445117885,73586.07781959507,71711.28054991728,64692.475163039584,376885.48140352743,136681.23026862505,88616.44132333295,107053.34479252633,TASK1
2026-05-26T09:50:59.087+00:00,725,48650,114431.09684361181,73586.614261462,71712.6216545846,64694.88915144075,376894.86913619866,136682.03493142544,88616.24015763286,107054.95411812712,TASK1
2026-05-26T09:50:59.087+00:00,725,48651,114429.5545732444,73586.614261462,71711.07938421718,64696.49847704154,376902.1111014022,136680.22444012456,88610.40635233001,107053.14362682623,TASK1
2026-05-26T09:50:59.087+00:00,725,48652,114428.81696567737,73586.88248239546,71708.73245104938,64694.151543873726,376905.5979735372,136678.14572789022,88606.7183144949,107054.21651056009,TASK1
2026-05-26T09:50:59.087+00:00,725,48653,114430.1580703447,73589.02824986317,71707.99484348235,64693.68215724017,376905.86619447067,136677.4081203232,88608.32764009567,107052.94246112613,TASK1
2026-05-26T09:50:59.087+00:00,725,48654,114431.23095407855,73590.90579639742,71707.99484348235,64696.3643665748,376908.8166247388,136680.09032965783,88607.05359066172,107053.74712392653,TASK1
2026-05-26T09:50:59.087+00:00,725,48655,114430.76156744499,73591.44223826434,71706.7207940484,64694.82209620739,376914.717485275,136678.27983835695,88604.17021562699,107050.0590860914,TASK1
2026-05-26T09:50:59.087+00:00,725,48656,114430.29218081142,73590.97285163078,71705.44674461444,64693.01160490651,376922.227671412,136676.73756798953,88602.62794525956,107046.90749012321,TASK1
2026-05-26T09:50:59.087+00:00,725,48657,114429.28635231094,73589.43058126337,71702.56336957972,64690.932892672165,376930.2742994159,136674.39063482173,88602.42677955946,107047.71215292359,TASK1
2026-05-26T09:50:59.087+00:00,725,48658,114430.09101511132,73589.43058126337,71699.94821547843,64689.65884323821,376938.58914835326,136673.1165853878,88603.49966329332,107049.32147852438,TASK1
2026-05-26T09:50:59.087+00:00,725,48659,114430.3592360448,73588.42475276288,71700.21643641191,64689.65884323821,376946.3675554237,136671.84253595382,88605.64543076104,107049.58969945784,TASK1
2026-05-26T09:50:59.087+00:00,725,48660,114428.54874474391,73585.54137772815,71700.48465734537,64688.92123567119,376957.09639276227,136667.08161438484,88604.10316039361,107047.51098722349,TASK1
2026-05-26T09:50:59.087+00:00,725,48661,114426.73825344304,73582.65800269341,71700.28349164527,64683.62387223528,376971.5803231693,136663.39357654972,88602.82911095966,107044.89583312222,TASK1
2026-05-26T09:50:59.087+00:00,725,48662,114427.27469530996,73582.18861605985,71699.54588407824,64681.54516000093,376986.3324745098,136662.6559689827,88602.3597243261,107045.16405405568,TASK1
2026-05-26T09:50:59.087+00:00,725,48663,114426.53708774294,73582.72505792677,71698.80827651122,64682.08160186787,377000.0117421165,136662.18658234912,88601.08567489215,107044.96288835559,TASK1
2026-05-26T09:50:59.087+00:00,725,48664,114425.7994801759,73584.33438352756,71698.33888987766,64683.95914840211,377009.1312538542,136662.99124514952,88604.84076796065,107048.71798142408,TASK1
2026-05-26T09:50:59.087+00:00,725,48665,114426.33592204284,73585.67548819487,71699.14355267806,64685.56847400289,377015.0321143904,136662.99124514952,88609.40052382952,107050.0590860914,TASK1
2026-05-26T09:50:59.087+00:00,725,48666,114423.18432607464,73585.67548819487,71698.13772417756,64684.5626455024,377024.9562889286,136660.9125329152,88605.98070692786,107045.83460638936,TASK1
2026-05-26T09:50:59.087+00:00,725,48667,114418.69162543913,73586.48015099527,71696.05901194322,64683.55681700191,377038.09911466826,136662.52185851597,88604.17021562699,107042.95123135461,TASK1
2026-05-26T09:50:59.087+00:00,725,48668,114416.07647133784,73589.69880219683,71692.90741597502,64685.43436353616,377048.02328920644,136667.08161438484,88602.89616619304,107043.48767322153,TASK1
2026-05-26T09:50:59.087+00:00,725,48669,114417.68579693863,73588.15653182942,71692.90741597502,64684.42853503567,377052.8512660088,136665.8075649509,88601.08567489215,107045.63344068926,TASK1
2026-05-26T09:50:59.087+00:00,725,48670,114417.48463123853,73588.69297369635,71694.5167415758,64684.227369335575,377053.6559288092,136666.88044868474,88596.0565323897,107046.16988255618,TASK1
2026-05-26T09:50:59.087+00:00,725,48671,114417.48463123853,73590.03407836366,71695.58962530966,64685.836694936355,377057.9474637446,136669.29443708592,88590.7591689538,107048.31565002388,TASK1
2026-05-26T09:50:59.087+00:00,725,48672,114418.02107310545,73589.83291266357,71695.1202386761,64683.22154083508,377060.62967307924,136669.09327138582,88588.68045671946,107048.58387095734,TASK1
2026-05-26T09:50:59.087+00:00,725,48673,114420.3009510399,73594.19150283234,71696.59545381015,64683.95914840211,377065.52470511495,136674.79296622192,88593.17315735498,107052.07074309238,TASK1
2026-05-26T09:50:59.087+00:00,725,48674,114419.83156440634,73596.60549123352,71698.20477941092,64686.104915869815,377068.4751353831,136678.54805929042,88595.05070388922,107054.75295242702,TASK1
2026-05-26T09:50:59.087+00:00,725,48675,114417.21641030507,73597.41015403392,71699.27766314478,64687.98246240406,377069.01157724997,136679.62094302426,88595.31892482268,107056.09405709433,TASK1
2026-05-26T09:50:59.087+00:00,725,48676,114414.33303527033,73597.94659590084,71697.73539277737,64688.51890427099,377073.3031121854,136678.34689359032,88592.43554978794,107052.67424019267,TASK1
2026-05-26T09:50:59.087+00:00,725,48677,114413.86364863678,73598.48303776777,71696.46134334341,64688.04951763743,377080.2768564554,136679.68799825764,88591.16150035399,107051.66841169218,TASK1
2026-05-26T09:50:59.087+00:00,725,48678,114413.12604106974,73600.62880523548,71695.72373577638,64688.04951763743,377090.46925192705,136681.83376572534,88594.1119306221,107050.66258319169,TASK1
2026-05-26T09:50:59.087+00:00,725,48679,114413.93070387014,73598.55009300113,71695.99195670986,64688.31773857089,377095.2972287294,136677.07284415636,88595.72125622288,107049.38853375774,TASK1
2026-05-26T09:50:59.087+00:00,725,48680,114413.93070387014,73595.93493889987,71700.55171257873,64685.43436353616,377099.85698459833,136674.4576900551,88594.98364865585,107050.99785935853,TASK1
2026-05-26T09:50:59.087+00:00,725,48681,114413.19309630312,73595.19733133283,71703.23392191337,64685.23319783606,377108.17183353566,136673.98830342153,88593.7095992219,107048.91914712418,TASK1
2026-05-26T09:50:59.087+00:00,725,48682,114413.72953817004,73593.38684003196,71705.11146844762,64683.95914840211,377113.8044731384,136670.3002655864,88593.97782015537,107044.69466742213,TASK1
2026-05-26T09:50:59.087+00:00,725,48683,114413.72953817004,73591.03990686416,71707.25723591533,64679.73466870005,377119.97355460806,136666.6122277513,88592.16732885448,107041.54307145393,TASK1
2026-05-26T09:50:59.087+00:00,725,48684,114412.18726780263,73589.22941556327,71709.13478244958,64675.77840993147,377129.3612872793,136663.72885271654,88590.08861662014,107042.61595518778,TASK1
2026-05-26T09:50:59.087+00:00,725,48685,114409.84033463482,73586.88248239546,71708.39717488254,64672.62681396327,377133.38460128126,136660.04081488142,88588.81456718619,107040.53724295345,TASK1
2026-05-26T09:50:59.087+00:00,725,48686,114409.84033463482,73588.22358706278,71706.05024171474,64670.81632266239,377133.9210431482,136659.03498638092,88589.61922998658,107040.33607725335,TASK1
2026-05-26T09:50:59.087+00:00,725,48687,114408.56628520087,73589.29647079663,71705.31263414772,64672.15742732971,377131.3058890469,136659.03498638092,88592.30143932122,107040.13491155325,TASK1
2026-05-26T09:50:59.087+00:00,725,48688,114404.87824736573,73589.09530509653,71702.69748004644,64674.57141573088,377128.4225140122,136659.03498638092,88593.37432305508,107040.40313248671,TASK1
2026-05-26T09:50:59.087+00:00,725,48689,114402.7995351314,73590.97285163078,71701.42343061249,64675.37607853127,377132.17760708067,136662.2536375825,88594.44720678893,107042.28067902096,TASK1
2026-05-26T09:50:59.087+00:00,725,48690,114402.5983694313,73592.85039816503,71701.95987247942,64675.9125203982,377137.8102466834,136665.2040678506,88596.32475332318,107047.91331862369,TASK1
2026-05-26T09:50:59.087+00:00,725,48691,114402.3972037312,73593.92328189888,71703.30097714673,64679.131171599765,377146.1250956208,136667.3498353183,88593.17315735498,107046.90749012321,TASK1
2026-05-26T09:50:59.087+00:00,725,48692,114401.65959616417,73594.45972376582,71702.56336957972,64681.008718134006,377155.24460735853,136669.49560278602,88591.36266605409,107039.19613828612,TASK1
2026-05-26T09:50:59.087+00:00,725,48693,114400.38554673022,73593.99033713224,71701.55754107922,64678.6617849662,377162.4865725621,136670.03204465294,88593.24021258834,107040.8054638869,TASK1
2026-05-26T09:50:59.087+00:00,725,48694,114399.11149729627,73595.06322086611,71701.82576201268,64678.19239833264,377168.3874330983,136672.44603305412,88595.92242192298,107043.48767322153,TASK1
2026-05-26T09:50:59.087+00:00,725,48695,114398.64211066271,73595.33144179957,71703.43508761347,64677.99123263254,377172.14252616675,136671.44020455363,88592.50260502132,107045.36521975578,TASK1
2026-05-26T09:50:59.087+00:00,725,48696,114398.44094496261,73598.28187206767,71705.04441321424,64678.52767449947,377177.23872390256,136675.19529762212,88589.35100905312,107045.90166162272,TASK1
2026-05-26T09:50:59.087+00:00,725,48697,114399.51382869646,73600.15941860192,71704.57502658069,64677.790066932444,377180.7255960376,136678.4139488237,88591.49677652083,107050.19319655813,TASK1
2026-05-26T09:50:59.087+00:00,725,48698,114399.78204962992,73600.15941860192,71703.03275621327,64677.320680298886,377181.530258838,136678.68216975714,88593.64254398854,107052.6071849593,TASK1
2026-05-26T09:50:59.087+00:00,725,48699,114399.31266299637,73600.9640814023,71702.56336957972,64676.314851798394,377181.3290931379,136679.21861162406,88592.10027362112,107051.60135645882,TASK1
2026-05-26T09:50:59.087+00:00,725,48700,114400.31849149686,73603.37806980348,71706.05024171474,64678.32650879937,377181.73142453807,136680.42560582465,88594.38015155555,107049.05325759092,TASK1
2026-05-26T09:50:59.087+00:00,725,48701,114399.8491048633,73604.98739540426,71707.92778824898,64679.66761346669,377181.73142453807,136679.9562191911,88596.2576980898,107048.04742909042,TASK1
2026-05-26T09:50:59.087+00:00,725,48702,114400.38554673022,73605.25561633773,71709.53711384977,64679.19822683313,377179.3844913703,136678.68216975714,88596.0565323897,107051.53430122545,TASK1
2026-05-26T09:50:59.087+00:00,725,48703,114399.91616009666,73603.17690410338,71711.414660384,64677.38773553225,377178.64688380325,136678.2127831236,88596.32475332318,107051.53430122545,TASK1
2026-05-26T09:50:59.087+00:00,725,48704,114398.10566879579,73602.17107560289,71711.95110225094,64675.57724423137,377180.792651271,136676.4022918227,88595.8553666896,107050.52847272497,TASK1
2026-05-26T09:50:59.087+00:00,725,48705,114396.2951774949,73600.36058430202,71711.48171561738,64673.49853199703,377182.13375593827,136674.8600214553,88596.12358762308,107050.52847272497,TASK1
2026-05-26T09:50:59.087+00:00,725,48706,114394.21646526056,73599.08653486807,71710.74410805035,64671.68804069614,377185.6206280733,136673.58597202133,88594.58131725565,107049.52264422447,TASK1
2026-05-26T09:50:59.087+00:00,725,48707,114392.9424158266,73599.08653486807,71710.00650048333,64671.218654062584,377191.25326767605,136670.43437605313,88592.77082595478,107045.83460638936,TASK1
2026-05-26T09:50:59.087+00:00,725,48708,114393.747078627,73599.89119766845,71709.80533478323,64669.408162761705,377199.0316747465,136669.42854755264,88588.27812531927,107041.87834762076,TASK1
2026-05-26T09:50:59.087+00:00,725,48709,114390.5954826588,73599.15359010143,71708.79950628274,64666.79300866043,377206.8100818169,136667.08161438484,88584.8583084176,107037.11742605177,TASK1
2026-05-26T09:50:59.087+00:00,725,48710,114390.12609602524,73598.68420346787,71709.60416908313,64664.98251735955,377220.2211284901,136664.46646028358,88584.65714271751,107031.28362074895,TASK1
2026-05-26T09:50:59.087+00:00,725,48711,114389.92493032514,73600.29352906864,71711.21349468392,64664.781351659454,377237.9237100987,136664.26529458349,88584.18775608393,107026.2544782465,TASK1
2026-05-26T09:50:59.087+00:00,725,48712,114389.92493032514,73599.55592150163,71709.93944524997,64661.361534757794,377252.67586143926,136662.72302421607,88582.91370664998,107025.248649746,TASK1
2026-05-26T09:50:59.087+00:00,725,48713,114388.65088089119,73598.28187206767,71706.25140741483,64659.01460158999,377260.4542685097,136662.52185851597,88583.98659038384,107028.46730094758,TASK1
2026-05-26T09:50:59.087+00:00,725,48714,114388.44971519109,73599.89119766845,71703.09981144663,64658.27699402296,377266.8915709128,136665.2040678506,88584.79125318423,107030.34484748181,TASK1
2026-05-26T09:50:59.087+00:00,725,48715,114387.17566575714,73598.08070636757,71700.75287827883,64658.27699402296,377274.4017570498,136665.2040678506,88586.13235785156,107030.34484748181,TASK1
2026-05-26T09:50:59.087+00:00,725,48716,114387.17566575714,73597.61131973402,71702.36220387962,64659.618098690284,377284.5941525214,136666.27695158444,88588.27812531927,107037.58681268535,TASK1
2026-05-26T09:50:59.087+00:00,725,48717,114386.16983725665,73599.48886626825,71703.16686668001,64660.69098242414,377290.76323399105,136669.49560278602,88588.81456718619,107044.56055695539,TASK1
2026-05-26T09:50:59.087+00:00,725,48718,114384.0911250223,73599.75708720172,71700.55171257873,64658.075828322864,377295.32298985997,136671.1049283868,88589.88745092004,107046.43810348964,TASK1
2026-05-26T09:50:59.087+00:00,725,48719,114384.62756688923,73598.75125870123,71698.20477941092,64655.46067422159,377302.02851319656,136671.37314932025,88588.07695961917,107045.70049592262,TASK1
2026-05-26T09:50:59.087+00:00,725,48720,114385.43222968963,73600.09236336855,71700.08232594517,64656.265337021985,377315.43955986976,136672.17781212064,88586.26646831828,107043.89000462173,TASK1
2026-05-26T09:50:59.087+00:00,725,48721,114384.96284305606,73601.1652471024,71703.03275621327,64655.79595038842,377332.6056996114,136672.17781212064,88587.60757298561,107047.37687675677,TASK1
2026-05-26T09:50:59.087+00:00,725,48722,114385.23106398953,73602.77457270319,71704.91030274752,64655.79595038842,377346.0167462846,136673.2506958545,88584.99241888433,107045.29816452242,TASK1
2026-05-26T09:50:59.087+00:00,725,48723,114384.76167735597,73603.57923550358,71705.71496554792,64654.25368002101,377356.7455836231,136673.2506958545,88583.45014851692,107045.09699882232,TASK1
2026-05-26T09:50:59.087+00:00,725,48724,114382.95118605508,73605.72500297129,71705.51379984782,64654.790121887934,377367.74264189514,136674.8600214553,88586.66879971848,107048.31565002388,TASK1
2026-05-26T09:50:59.087+00:00,725,48725,114382.75002035499,73606.26144483821,71706.58668358167,64654.05251432091,377385.9816653707,136674.39063482173,88586.46763401838,107047.84626339033,TASK1
2026-05-26T09:50:59.087+00:00,725,48726,114382.75002035499,73605.79205820465,71707.65956731552,64654.05251432091,377402.0749213785,136673.6530272547,88586.26646831828,107045.49933022252,TASK1
2026-05-26T09:50:59.371+00:00,726,48727,114382.75002035499,73604.24978783724,71707.45840161543,64653.58312768735,377407.7075609812,136671.84253595382,88585.79708168472,107044.22528078857,TASK1
2026-05-26T09:50:59.371+00:00,726,48728,114383.82290408884,73604.24978783724,71707.99484348235,64653.113741053785,377406.16529061383,136670.5684865199,88589.55217475322,107046.10282732281,TASK1
2026-05-26T09:50:59.371+00:00,726,48729,114384.62756688923,73605.59089250455,71709.33594814967,64653.91840385418,377404.6230202464,136670.5684865199,88591.42972128747,107047.44393199013,TASK1
2026-05-26T09:50:59.371+00:00,726,48730,114385.96867155655,73606.6637762384,71710.67705281699,64655.52772945496,377406.5005667807,136671.9095911872,88591.96616315439,107047.24276629003,TASK1
2026-05-26T09:50:59.371+00:00,726,48731,114385.90161632319,73607.13316287198,71713.15809645153,64656.399447488715,377415.2177471182,136671.57431502035,88591.16150035399,107045.23110928906,TASK1
2026-05-26T09:50:59.371+00:00,726,48732,114384.62756688923,73605.05445063763,71712.95693075143,64654.05251432091,377421.65504952136,136670.03204465294,88591.16150035399,107040.20196678661,TASK1
2026-05-26T09:50:59.371+00:00,726,48733,114384.15818025568,73604.3168430706,71715.63914008606,64650.09625555232,377430.77456125914,136666.6122277513,88588.81456718619,107032.49061494954,TASK1
2026-05-26T09:50:59.371+00:00,726,48734,114383.6887936221,73606.4626105383,71716.98024475339,64650.90091835271,377439.35763112997,136666.6122277513,88587.00407588531,107030.41190271519,TASK1
2026-05-26T09:50:59.371+00:00,726,48735,114381.61008138777,73608.0719361391,71718.58957035416,64653.31490675388,377447.9407010008,136668.757995219,88588.88162241956,107034.16699578367,TASK1
2026-05-26T09:50:59.371+00:00,726,48736,114379.79959008688,73607.60254950554,71719.1260122211,64653.31490675388,377458.1330964724,136668.757995219,88586.80291018522,107038.19030978563,TASK1
2026-05-26T09:50:59.371+00:00,726,48737,114377.72087785254,73604.18273260388,71715.9744162529,64648.82220611837,377462.1564104744,136665.33817831732,88583.91953515047,107037.18448128515,TASK1
2026-05-26T09:50:59.371+00:00,726,48738,114375.91038655167,73603.17690410338,71713.09104121815,64643.79306361592,377465.3750616759,136662.72302421607,88579.69505544842,107029.74135038153,TASK1
2026-05-26T09:50:59.371+00:00,726,48739,114373.83167431732,73603.98156690378,71711.28054991728,64642.78723511544,377473.6899106133,136663.52768701644,88579.69505544842,107025.248649746,TASK1
2026-05-26T09:50:59.371+00:00,726,48740,114374.09989525078,73606.12733437149,71711.28054991728,64642.31784848187,377487.1009572865,136665.67345448415,88581.84082291613,107029.54018468143,TASK1
2026-05-26T09:50:59.371+00:00,726,48741,114374.63633711771,73605.121505871,71712.88987551806,64639.43447344714,377501.5848876935,136664.3994050502,88584.25481131731,107032.758835883,TASK1
2026-05-26T09:50:59.371+00:00,726,48742,114375.44099991811,73605.92616867139,71713.69453831845,64637.08754027933,377513.3866087659,136666.008730651,88586.66879971848,107035.17282428416,TASK1
2026-05-26T09:50:59.371+00:00,726,48743,114375.44099991811,73606.19438960485,71710.81116328372,64637.62398214626,377520.6285739695,136665.27112308398,88586.46763401838,107036.78214988495,TASK1
2026-05-26T09:50:59.371+00:00,726,48744,114374.97161328454,73605.99322390475,71708.46423011592,64636.618153645766,377529.7480857072,136662.6559689827,88581.17027058247,107029.87546084826,TASK1
2026-05-26T09:50:59.371+00:00,726,48745,114375.50805515147,73606.52966577168,71709.53711384977,64636.618153645766,377536.7218299773,136662.4548032826,88583.04781711672,107029.4060742147,TASK1
2026-05-26T09:50:59.371+00:00,726,48746,114375.50805515147,73608.13899137246,71709.53711384977,64635.61232514528,377540.47692304576,136664.0641288834,88582.3102095497,107030.47895794855,TASK1
2026-05-26T09:50:59.371+00:00,726,48747,114375.50805515147,73608.94365417285,71708.79950628274,64634.07005477786,377543.69557424734,136664.86879168378,88582.84665141662,107032.08828354934,TASK1
2026-05-26T09:50:59.371+00:00,726,48748,114375.03866851791,73610.28475884016,71706.18435218147,64633.86888907777,377546.1095626485,136664.3994050502,88581.57260198267,107033.69760915011,TASK1
2026-05-26T09:50:59.371+00:00,726,48749,114374.83750281781,73611.35764257402,71704.37386088059,64633.131281510745,377550.13287665043,136664.1982393501,88579.76211068178,107035.03871381744,TASK1
2026-05-26T09:50:59.371+00:00,726,48750,114374.83750281781,73611.62586350749,71704.37386088059,64631.589011143325,377558.98416745476,136662.6559689827,88581.10321534911,107032.69178064962,TASK1
2026-05-26T09:50:59.371+00:00,726,48751,114377.25149121898,73612.43052630789,71705.71496554792,64628.70563610859,377568.371900126,136662.92418991617,88581.9078781495,107034.83754811734,TASK1
2026-05-26T09:50:59.371+00:00,726,48752,114379.86664532025,73615.31390134261,71707.19018068197,64626.02342677395,377571.79171702766,136665.67345448415,88577.07990134716,107038.32442025236,TASK1
2026-05-26T09:50:59.371+00:00,726,48753,114380.67130812064,73618.26433161071,71707.19018068197,64623.408272672685,377569.1765629264,136667.0145591515,88576.34229378012,107037.8550336188,TASK1
2026-05-26T09:50:59.371+00:00,726,48754,114380.93952905411,73622.01942467921,71708.26306441582,64627.96802854157,377566.02496695815,136668.3556638188,88576.34229378012,107038.6596964192,TASK1
2026-05-26T09:50:59.371+00:00,726,48755,114381.20774998757,73626.31095961462,71709.60416908313,64630.38201694274,377565.82380125806,136669.1603266192,88576.87873564706,107042.41478948768,TASK1
2026-05-26T09:50:59.371+00:00,726,48756,114381.47597092103,73629.79783174965,71709.8723900166,64628.03508377493,377567.9695687258,136671.03787315343,88580.09738684862,107046.43810348964,TASK1
2026-05-26T09:50:59.371+00:00,726,48757,114381.47597092103,73632.21182015083,71707.79367778225,64627.56569714137,377571.4564408608,136673.18364062114,88581.97493338287,107051.80252215892,TASK1
2026-05-26T09:50:59.371+00:00,726,48758,114380.73836335402,73635.69869228585,71705.17852368098,64626.559868640885,377580.5759525986,136676.13407088924,88583.85247991711,107052.07074309238,TASK1
2026-05-26T09:50:59.371+00:00,726,48759,114382.07946802133,73638.38090162049,71705.98318648138,64627.36453144127,377586.4768131348,136678.27983835695,88585.73002645136,107046.77337965647,TASK1
2026-05-26T09:50:59.371+00:00,726,48760,114380.80541858738,73640.79489002166,71707.86073301562,64628.169194241666,377588.354359669,136681.49848955852,88584.72419795087,107044.42644648867,TASK1
2026-05-26T09:50:59.371+00:00,726,48761,114379.53136915342,73641.86777375551,71707.86073301562,64627.43158667464,377592.1094527375,136682.83959422584,88584.52303225077,107041.54307145393,TASK1
2026-05-26T09:50:59.371+00:00,726,48762,114377.98909878601,73643.74532028976,71707.12312544859,64627.6998076081,377592.377673671,136684.71714076007,88581.10321534911,107039.19613828612,TASK1
2026-05-26T09:50:59.371+00:00,726,48763,114375.6421656182,73645.89108775747,71704.50797134732,64626.15753724069,377587.616752102,136683.17487039266,88576.34229378012,107036.3127632514,TASK1
2026-05-26T09:50:59.371+00:00,726,48764,114374.90455805117,73645.42170112391,71700.81993351219,64623.274162205955,377580.9782839988,136680.5597162914,88573.99536061232,107031.01539981549,TASK1
2026-05-26T09:50:59.371+00:00,726,48765,114376.24566271849,73643.8794307565,71702.16103817952,64621.19544997161,377576.7538042967,136679.28566685744,88573.52597397876,107027.32736198035,TASK1
2026-05-26T09:50:59.371+00:00,726,48766,114376.24566271849,73643.14182318946,71706.18435218147,64620.45784240458,377575.4797548628,136677.2069546231,88573.0565873452,107027.59558291381,TASK1
2026-05-26T09:50:59.371+00:00,726,48767,114374.97161328454,73643.6782650564,71707.52545684879,64619.18379297063,377575.4797548628,136676.46934705606,88573.32480827866,107029.47312944806,TASK1
2026-05-26T09:50:59.371+00:00,726,48768,114374.50222665098,73642.94065748937,71707.05607021523,64617.64152260321,377581.380615399,136674.92707668865,88571.51431697779,107027.39441721371,TASK1
2026-05-26T09:50:59.371+00:00,726,48769,114375.30688945137,73642.94065748937,71708.93361674948,64616.0992522358,377588.0861387356,136673.92124818816,88569.16738380997,107026.38858871323,TASK1
2026-05-26T09:50:59.371+00:00,726,48770,114376.11155225176,73643.74532028976,71710.54294235025,64616.635694102726,377589.6954643364,136677.13989938973,88575.06824434617,107033.09411204982,TASK1
2026-05-26T09:50:59.371+00:00,726,48771,114376.37977318522,73643.54415458966,71712.4204888845,64616.16630746916,377589.4942986363,136676.13407088924,88576.67756994696,107034.16699578367,TASK1
2026-05-26T09:50:59.371+00:00,726,48772,114374.56928188434,73644.88525925699,71711.414660384,64615.6969208356,377585.00159800076,136676.93873368963,88578.01867461427,107034.16699578367,TASK1
2026-05-26T09:50:59.371+00:00,726,48773,114371.14946498268,73646.2263639243,71707.45840161543,64614.15465046818,377581.5817810991,136677.74339649003,88576.2081833134,107035.508100451,TASK1
2026-05-26T09:50:59.371+00:00,726,48774,114368.26608994795,73643.8794307565,71706.18435218147,64610.46661263306,377580.84417353204,136675.6646842557,88570.64259894402,107037.38564698525,TASK1
2026-05-26T09:50:59.371+00:00,726,48775,114367.79670331438,73644.68409355689,71705.44674461444,64609.46078413257,377582.9899409998,136678.07867265685,88568.02744484275,107036.91626035167,TASK1
2026-05-26T09:50:59.371+00:00,726,48776,114367.79670331438,73648.17096569191,71703.63625331357,64609.25961843247,377589.1590224694,136681.56554479187,88569.904991377,107040.13491155325,TASK1
2026-05-26T09:50:59.371+00:00,726,48777,114368.93664228161,73650.71906455982,71703.90447424703,64609.930170766136,377591.43890040385,136685.58885879384,88570.1061570771,107044.1582255552,TASK1
2026-05-26T09:50:59.371+00:00,726,48778,114368.46725564805,73650.98728549328,71702.63042481308,64609.19256319911,377585.0686532341,136687.19818439463,88570.1061570771,107043.9570598551,TASK1
2026-05-26T09:50:59.371+00:00,726,48779,114369.5401393819,73652.3283901606,71702.89864574654,64610.265446932965,377581.9170572659,136689.88039372925,88571.44726174441,107045.83460638936,TASK1
2026-05-26T09:50:59.371+00:00,726,48780,114369.5401393819,73653.133052961,71703.97152948039,64612.41121440067,377584.33104566706,136692.56260306388,88572.78836641174,107046.10282732281,TASK1
2026-05-26T09:50:59.371+00:00,726,48781,114367.99786901448,73652.9318872609,71705.58085508118,64612.9476562676,377583.32521716657,136692.56260306388,88572.0507588447,107045.63344068926,TASK1
2026-05-26T09:50:59.371+00:00,726,48782,114365.38271491321,73650.85317502655,71707.19018068197,64612.47826963404,377580.1736211984,136689.41100709568,88568.8991628765,107039.53141445295,TASK1
2026-05-26T09:50:59.371+00:00,726,48783,114364.10866547926,73648.77446279221,71707.72662254889,64609.86311553277,377580.71006306534,136689.94744896263,88565.7475669083,107036.37981848475,TASK1
2026-05-26T09:50:59.371+00:00,726,48784,114363.10283697877,73646.15930869094,71708.79950628274,64606.71151956457,377581.5147258657,136689.47806232906,88562.32775000665,107037.18448128515,TASK1
2026-05-26T09:50:59.371+00:00,726,48785,114362.63345034521,73644.61703832351,71708.59834058264,64605.169249197155,377585.53803986765,136689.0086756955,88563.4006337405,107037.98914408553,TASK1
2026-05-26T09:50:59.371+00:00,726,48786,114363.16989221214,73646.49458485776,71711.28054991728,64607.85145853179,377591.1706794704,136691.95910596362,88565.54640120821,107035.37398998426,TASK1
2026-05-26T09:50:59.371+00:00,726,48787,114363.70633407906,73648.37213139201,71713.15809645153,64610.265446932965,377593.04822600464,136693.56843156437,88565.34523550811,107033.56349868339,TASK1
2026-05-26T09:50:59.371+00:00,726,48788,114364.242775946,73648.37213139201,71711.34760515064,64606.845630031305,377594.389330672,136692.56260306388,88565.14406980803,107028.53435618094,TASK1
2026-05-26T09:50:59.371+00:00,726,48789,114364.0416102459,73650.24967792626,71710.60999758363,64608.454955632085,377595.9986562728,136691.82499549686,88564.67468317445,107024.04165554543,TASK1
2026-05-26T09:50:59.371+00:00,726,48790,114361.69467707809,73650.04851222616,71712.48754411787,64606.37624339774,377602.9724005428,136691.62382979676,88570.3073227772,107025.38276021274,TASK1
2026-05-26T09:50:59.371+00:00,726,48791,114360.95706951106,73648.77446279221,71715.9744162529,64602.95642649608,377608.0685982786,136690.34978036283,88571.91664837797,107023.3040479784,TASK1
2026-05-26T09:50:59.371+00:00,726,48792,114358.3419154098,73648.03685522519,71713.89570401855,64598.731946794025,377611.2872494802,136688.53928906194,88571.17904081095,107020.1524520102,TASK1
2026-05-26T09:50:59.371+00:00,726,48793,114357.60430784276,73645.95814299084,71712.08521271768,64593.43458335812,377614.7741216152,136686.72879776105,88569.1003285766,107017.26907697547,TASK1
2026-05-26T09:50:59.371+00:00,726,48794,114357.1349212092,73644.14765168996,71710.81116328372,64589.74654552299,377619.3338774841,136684.1136436598,88567.28983727573,107014.92214380766,TASK1
2026-05-26T09:50:59.371+00:00,726,48795,114354.7879880414,73644.14765168996,71709.80533478323,64590.01476645646,377622.2843077522,136684.38186459325,88564.13824130753,107014.72097810757,TASK1
2026-05-26T09:50:59.371+00:00,726,48796,114355.86087177525,73646.29341915766,71710.07355571669,64593.769859524946,377624.69829615334,136688.13695766174,88565.7475669083,107017.13496650873,TASK1
2026-05-26T09:50:59.371+00:00,726,48797,114356.9337555091,73646.8298610246,71711.68288131748,64594.8427432588,377618.59626991703,136690.81916699637,88570.84376464412,107022.23116424454,TASK1
2026-05-26T09:50:59.371+00:00,726,48798,114355.12326420823,73644.48292785679,71711.48171561738,64593.836914758314,377608.73915061227,136688.74045476204,88567.69216867593,107020.1524520102,TASK1
2026-05-26T09:50:59.371+00:00,726,48799,114352.50811010695,73641.33133188859,71710.20766618343,64587.46666758855,377603.7100081098,136685.58885879384,88560.2490377723,107016.46441417508,TASK1
2026-05-26T09:50:59.371+00:00,726,48800,114350.69761880608,73640.86194525503,71707.86073301562,64584.046850686886,377600.2901912082,136685.38769309374,88555.75633713679,107015.72680660804,TASK1
2026-05-26T09:50:59.371+00:00,726,48801,114350.69761880608,73641.1301661885,71707.12312544859,64582.50458031947,377596.0657115061,136685.38769309374,88555.01872956977,107012.84343157332,TASK1
2026-05-26T09:50:59.664+00:00,727,48802,114349.96001123905,73639.05145395415,71703.97152948039,64581.23053088552,377588.6225806025,136685.18652739364,88556.89627610402,107014.72097810757,TASK1
2026-05-26T09:50:59.664+00:00,727,48803,114347.88129900472,73641.19722142185,71700.01527071181,64583.912740220156,377575.81503102963,136688.40517859522,88558.50560170479,107015.79386184142,TASK1
2026-05-26T09:50:59.664+00:00,727,48804,114348.8871275052,73644.0805964566,71700.88698874557,64588.47249608904,377567.23196115874,136691.55677456342,88559.37731973855,107016.39735894171,TASK1
2026-05-26T09:50:59.664+00:00,727,48805,114347.07663620432,73645.42170112391,71701.15520967903,64590.618263556746,377561.39815585595,136693.97076296457,88559.17615403845,107019.07956827634,TASK1
2026-05-26T09:50:59.664+00:00,727,48806,114346.07080770383,73648.37213139201,71702.49631434634,64591.42292635714,377559.3194436216,136699.06696070038,88563.46768897388,107022.02999854444,TASK1
2026-05-26T09:50:59.664+00:00,727,48807,114345.86964200373,73648.64035232547,71703.03275621327,64591.42292635714,377554.82674298604,136700.94450723464,88565.61345644158,107020.75594911049,TASK1
2026-05-26T09:50:59.664+00:00,727,48808,114348.82007227183,73651.05434072665,71703.30097714673,64593.56869382485,377545.2378446147,136703.89493750274,88569.904991377,107021.02417004395,TASK1
2026-05-26T09:50:59.664+00:00,727,48809,114349.08829320529,73653.20010819436,71704.64208181406,64594.105135691774,377537.5264927777,136704.69960030314,88572.31897977817,107021.82883284435,TASK1
2026-05-26T09:50:59.664+00:00,727,48810,114347.81424377134,73652.46250062733,71706.5196283483,64592.56286532436,377537.0571061441,136703.69377180265,88571.58137221115,107023.16993751167,TASK1
2026-05-26T09:50:59.664+00:00,727,48811,114349.42356937213,73651.45667212685,71708.12895394908,64591.82525775734,377541.3486410795,136703.49260610255,88571.58137221115,107020.82300434385,TASK1
2026-05-26T09:50:59.664+00:00,727,48812,114350.76467403944,73650.1826226929,71709.20183768294,64590.28298738992,377542.4215248134,136701.4138938682,88571.11198557759,107017.40318744219,TASK1
2026-05-26T09:50:59.664+00:00,727,48813,114350.02706647242,73647.83568952509,71710.27472141679,64585.7902867544,377545.3719550815,136698.2622979,88569.56971521016,107014.51981240747,TASK1
2026-05-26T09:50:59.664+00:00,727,48814,114349.02123797193,73646.0251982242,71710.81116328372,64583.4433535866,377548.0541644161,136696.45180659913,88568.29566577621,107012.70932110658,TASK1
2026-05-26T09:50:59.664+00:00,727,48815,114347.47896760452,73647.63452382499,71711.34760515064,64582.437525086105,377550.4681528173,136696.45180659913,88570.44143324393,107010.89882980571,TASK1
2026-05-26T09:50:59.664+00:00,727,48816,114347.27780190442,73648.9756284923,71715.63914008606,64582.437525086105,377553.1503621519,136697.25646939952,88575.26941004627,107011.16705073917,TASK1
2026-05-26T09:50:59.664+00:00,727,48817,114347.81424377134,73649.24384942577,71733.07350076121,64580.627033785226,377554.49146681925,136695.17775716516,88575.8058519132,107010.42944317214,TASK1
2026-05-26T09:50:59.664+00:00,727,48818,114345.19908967007,73650.04851222616,71747.02098930131,64577.74365875049,377556.10079242004,136694.97659146506,88572.654255945,107007.81428907087,TASK1
2026-05-26T09:50:59.664+00:00,727,48819,114344.19326116958,73650.85317502655,71754.79939637176,64576.73783025,377562.00165295624,136697.12235893277,88575.6046862131,107008.3507309378,TASK1
2026-05-26T09:50:59.664+00:00,727,48820,114343.99209546948,73653.80360529466,71760.16381504104,64576.000222682975,377579.43601363135,136700.07278920087,88578.01867461427,107009.15539373818,TASK1
2026-05-26T09:50:59.664+00:00,727,48821,114344.52853733642,73653.3342186611,71764.18712904298,64573.65328951517,377597.4068161734,136698.79873976693,88574.86707864607,107007.88134430423,TASK1
2026-05-26T09:50:59.664+00:00,727,48822,114346.13786293719,73653.60243959456,71767.40578024456,64573.921510448636,377606.5263279112,136700.67628630117,88575.13529957955,107011.90465830619,TASK1
2026-05-26T09:50:59.664+00:00,727,48823,114346.13786293719,73652.59661109406,71770.62443144612,64574.189731382095,377611.35430471355,136701.74917003504,88574.39769201251,107015.39153044122,TASK1
2026-05-26T09:50:59.664+00:00,727,48824,114344.59559256978,73647.0310267247,71771.42909424652,64568.35592607926,377616.1822815159,136697.79291126644,88575.47057574637,107018.07373977586,TASK1
2026-05-26T09:50:59.664+00:00,727,48825,114344.39442686968,73645.22053542381,71772.2337570469,64564.9361091776,377621.54670018516,136697.05530369942,88577.07990134716,107019.9512863101,TASK1
2026-05-26T09:50:59.664+00:00,727,48826,114346.54019433739,73646.8298610246,71775.98885011539,64567.618318512235,377631.20265378983,136700.8103967679,88580.83499441565,107026.92503058015,TASK1
2026-05-26T09:50:59.664+00:00,727,48827,114347.07663620432,73648.17096569191,71779.47572225043,64566.34426907828,377639.78572366067,136702.15150143523,88581.10321534911,107028.8025771144,TASK1
2026-05-26T09:50:59.664+00:00,727,48828,114348.6859618051,73650.04851222616,71782.69437345199,64563.19267311009,377643.00437486224,136702.15150143523,88581.9078781495,107030.41190271519,TASK1
2026-05-26T09:50:59.664+00:00,727,48829,114350.02706647242,73652.46250062733,71786.71768745394,64563.46089404355,377646.2230260638,136702.41972236868,88582.71254094988,107034.43521671715,TASK1
2026-05-26T09:50:59.664+00:00,727,48830,114349.55767983885,73653.26716342772,71789.66811772205,64563.99733591048,377652.66032846697,136703.760827036,88579.5609449817,107030.74717888201,TASK1
2026-05-26T09:50:59.664+00:00,727,48831,114351.4352263731,73656.21759369582,71792.8867689236,64566.143103378185,377658.0247471362,136706.97947823757,88577.48223274735,107026.2544782465,TASK1
2026-05-26T09:50:59.664+00:00,727,48832,114351.70344730657,73656.75403556276,71794.4960945244,64564.332612077305,377661.51161927124,136706.77831253747,88575.93996237993,107024.44398694563,TASK1
2026-05-26T09:50:59.664+00:00,727,48833,114348.2836304049,73655.21176519533,71794.02670789082,64563.32678357682,377665.26671233977,136707.04653347094,88575.47057574637,107022.63349564474,TASK1
2026-05-26T09:50:59.664+00:00,727,48834,114346.20491817057,73655.21176519533,71793.82554219072,64564.9361091776,377670.3629100756,136708.38763813826,88574.19652631241,107021.35944621079,TASK1
2026-05-26T09:50:59.664+00:00,727,48835,114347.81424377134,73657.96102976333,71797.64769049258,64565.740771977995,377677.0684334121,136710.8016265394,88575.73879667984,107023.57226891186,TASK1
2026-05-26T09:50:59.664+00:00,727,48836,114347.07663620432,73659.03391349719,71795.56897825825,64564.46672254404,377678.9459799464,136712.14273120675,88577.34812228061,107020.42067294367,TASK1
2026-05-26T09:50:59.664+00:00,727,48837,114347.88129900472,73659.57035536412,71794.2949288243,64564.7349434775,377681.0917474141,136712.94739400715,88581.37143628257,107020.21950724357,TASK1
2026-05-26T09:50:59.664+00:00,727,48838,114347.41191237114,73661.17968096491,71793.55732125726,64566.07604814482,377682.43285208143,136716.43426614217,88583.78542468374,107016.53146940844,TASK1
2026-05-26T09:50:59.664+00:00,727,48839,114346.40608387066,73662.78900656568,71789.86928342214,64566.61249001175,377676.5990467786,136717.77537080948,88583.31603805018,107010.16122223868,TASK1
2026-05-26T09:50:59.664+00:00,727,48840,114346.40608387066,73664.130111233,71776.52529198233,64567.953594679064,377671.0334624092,136719.1164754768,88583.58425898365,107005.13207973623,TASK1
2026-05-26T09:50:59.664+00:00,727,48841,114347.21074667104,73665.47121590032,71765.32706801021,64570.09936214678,377668.41830830794,136723.13978947877,88583.85247991711,107005.66852160316,TASK1
2026-05-26T09:50:59.664+00:00,727,48842,114348.55185133837,73664.73360833329,71761.10258830816,64569.62997551321,377663.657386739,136723.4080104122,88583.85247991711,107009.96005653858,TASK1
2026-05-26T09:50:59.664+00:00,727,48843,114350.42939787262,73662.38667516549,71758.21921327342,64565.673716744626,377655.6778139684,136721.32929817788,88585.19358458443,107013.98337054053,TASK1
2026-05-26T09:50:59.664+00:00,727,48844,114349.69179030559,73662.65489609895,71756.14050103909,64564.399667310674,377645.5524737302,136722.13396097827,88586.26646831828,107020.1524520102,TASK1
2026-05-26T09:50:59.664+00:00,727,48845,114349.96001123905,73663.19133796588,71756.67694290601,64561.51629227594,377642.66909869545,136724.0115075125,88590.02156138678,107026.0533125464,TASK1
