timestamp_utc,packet_index,sample_index,AF3,AF4,F3,F4,FC5,FC6,O2,O1,label
2026-05-26T09:52:08.362+00:00,944,65952,103981.07516539993,68073.13180841587,65221.7421199968,67510.3372347757,259937.66754122582,129006.42353372854,85913.31075588593,103047.66631694631,TASK2
2026-05-26T09:52:08.362+00:00,944,65953,103983.75737473457,68080.37377361939,65227.10653866608,67481.43642919498,259940.34975056048,129144.28909352887,85929.13579096028,103053.56717748252,TASK2
2026-05-26T09:52:08.362+00:00,944,65954,103988.58535153692,68083.32420388749,65235.15316666999,67479.35771696063,259938.27103832611,129052.08814765073,85941.74217483308,103065.10067762145,TASK2
2026-05-26T09:52:08.362+00:00,944,65955,103984.89731370179,68102.36789016341,65248.02777147624,67517.71331044594,259931.36434928942,129044.91323768058,85938.05413699795,103068.31932882301,TASK2
2026-05-26T09:52:08.362+00:00,944,65956,104003.94099997771,68072.66242178231,65272.7040973549,67517.98153137941,259931.6325702229,128959.95425700596,85957.36604420735,103084.94902669777,TASK2
2026-05-26T09:52:08.362+00:00,944,65957,103987.64657826979,68067.3650583464,65235.22022190335,67487.20317926444,259931.4314045228,128907.18178834698,85959.51181167505,103101.31050363905,TASK2
2026-05-26T09:52:08.362+00:00,944,65958,103986.37252883584,68077.02101195109,65233.40973060247,67530.3867495521,259930.69379695578,129138.12001205921,85964.07156754393,103107.47958510871,TASK2
2026-05-26T09:52:08.362+00:00,944,65959,103999.78357550903,68088.28629115658,65246.016114475264,67502.02238583831,259932.0349016231,129117.26583448242,85976.94617235019,103121.42707364883,TASK2
2026-05-26T09:52:08.362+00:00,944,65960,103989.92645620424,68091.23672142466,65244.47384410785,67505.50925797335,259925.9328753868,129067.17557515806,85995.72163769265,103136.17922498933,TASK2
2026-05-26T09:52:08.362+00:00,944,65961,103995.55909580698,68083.52536958759,65250.91114651098,67517.31097904574,259917.4168607493,129038.81121144428,85997.33096329343,103135.70983835576,TASK2
2026-05-26T09:52:08.362+00:00,944,65962,103991.87105797185,68099.61862559541,65254.398018646,67531.52668851931,259911.04661357956,129035.65961547608,85996.86157665987,103133.63112612143,TASK2
2026-05-26T09:52:08.362+00:00,944,65963,103994.28504637303,68078.49622708514,65271.832379321146,67546.01061892636,259899.58016867397,129027.14360083861,86011.07728613344,103136.31333545606,TASK2
2026-05-26T09:52:08.362+00:00,944,65964,103997.83897374141,68084.19592192124,65265.126855984556,67536.42172055504,259907.62679667788,129032.37390904115,86003.76826569656,103141.20836749177,TASK2
2026-05-26T09:52:08.362+00:00,944,65965,104004.00805521107,68083.19009342077,65264.12102748406,67519.05441511326,259912.99121534717,129072.33882812725,85997.12979759333,103141.47658842524,TASK2
2026-05-26T09:52:08.362+00:00,944,65966,104010.44535761421,68091.7731632916,65270.82655082066,67523.34595004868,259915.13698281487,128946.61026556614,86018.0510304035,103145.76812336066,TASK2
2026-05-26T09:52:08.362+00:00,944,65967,104002.73400577712,68092.04138422506,65268.747838586314,67555.80068299778,259910.3760612459,128967.53149837631,86017.8498647034,103143.42119019285,TASK2
2026-05-26T09:52:08.362+00:00,944,65968,104005.41621511176,68108.40286116634,65273.3075944552,67564.11553193515,259913.05827058054,129182.37646608072,86003.96943139666,103138.12382675694,TASK2
2026-05-26T09:52:08.362+00:00,944,65969,104020.43658738573,68092.91310225881,65287.25508299531,67549.96687769494,259918.69091018327,129113.77896234738,86022.20845487219,103144.2929082266,TASK2
2026-05-26T09:52:08.362+00:00,944,65970,104017.55321235099,68092.91310225881,65288.596187662624,67530.45380478546,259920.5684567175,129038.20771434398,86018.78863797052,103145.097571027,TASK2
2026-05-26T09:52:08.362+00:00,944,65971,104013.32873264894,68089.22506442369,65308.44453673894,67568.5411773373,259921.10489858445,129045.18145861404,86024.42127757326,103143.82352159305,TASK2
2026-05-26T09:52:08.362+00:00,944,65972,104005.88560174532,68110.14629723386,65298.85563836761,67555.73362776442,259922.1777823183,129095.87521503869,86015.63704200233,103143.08591402601,TASK2
2026-05-26T09:52:08.362+00:00,944,65973,104011.78646228153,68103.23960819717,65278.8061235912,67570.48577910491,259919.29440728357,129033.71501370847,86019.39213507081,103143.08591402601,TASK2
2026-05-26T09:52:08.362+00:00,944,65974,104013.39578788231,68095.52825636009,65289.53496092975,67554.191357397,259916.14281131537,128990.59849865419,86031.73029801015,103143.62235589295,TASK2
2026-05-26T09:52:08.362+00:00,944,65975,104007.56198257947,68090.49911385764,65292.21717026438,67553.9901916969,259915.40520374835,129092.25423243691,86024.28716710652,103142.08008552552,TASK2
2026-05-26T09:52:08.362+00:00,944,65976,104011.58529658143,68099.61862559541,65288.79735336272,67567.13301743662,259912.5218287136,129078.64202006363,86026.7011555077,103143.42119019285,TASK2
2026-05-26T09:52:08.362+00:00,944,65977,104014.53572684953,68099.14923896185,65292.55244643122,67577.86185477517,259912.3206630135,129065.83447049075,86033.40667884429,103149.32205072905,TASK2
2026-05-26T09:52:08.362+00:00,944,65978,104012.18879368172,68095.72942206019,65298.185086033955,67570.1505029381,259909.70550891224,129066.9073542246,86047.08594645094,103160.05088806759,TASK2
2026-05-26T09:52:08.362+00:00,944,65979,104011.71940704816,68096.26586392711,65302.20840003591,67561.63448830062,259906.55391294404,129048.46716504898,86054.32791165446,103170.51150447268,TASK2
2026-05-26T09:52:08.362+00:00,944,65980,104012.52406984856,68088.8227330235,65307.57281870518,67560.0922179332,259905.54808444355,129076.3621421292,86051.71275755319,103178.28991154312,TASK2
2026-05-26T09:52:08.362+00:00,944,65981,104010.98179948113,68096.06469822701,65300.66612966849,67560.62865980013,259911.18072404628,129084.94521200004,86059.49116462364,103193.84672568402,TASK2
2026-05-26T09:52:08.362+00:00,944,65982,104007.83020351295,68101.4291168963,65295.63698716605,67574.8443692737,259918.95913111675,129039.68292947803,86083.09460676844,103213.1586328934,TASK2
2026-05-26T09:52:08.362+00:00,944,65983,104009.17130818026,68096.66819532731,65300.46496396839,67610.78597435783,259928.34686378797,129043.43802254653,86069.75061532862,103212.68924625985,TASK2
2026-05-26T09:52:08.362+00:00,944,65984,104007.62903781285,68096.66819532731,65306.365824504595,67577.32541290825,259933.44306152378,129077.77030202988,86069.28122869506,103219.39476959643,TASK2
2026-05-26T09:52:08.362+00:00,944,65985,104007.15965117927,68132.60980041145,65305.89643787103,67600.12419225265,259937.7345964592,129078.84318576373,86074.37742643087,103223.68630453185,TASK2
2026-05-26T09:52:08.362+00:00,944,65986,104019.76603505207,68086.27463415559,65318.77104267729,67594.82682881675,259940.6850267273,129005.95414709498,86084.56982190249,103233.34225813654,TASK2
2026-05-26T09:52:08.362+00:00,944,65987,104008.03136921303,68076.41751485081,65304.62238843708,67546.88233696012,259941.75791046114,129114.31540421431,86079.8089003335,103234.95158373733,TASK2
2026-05-26T09:52:08.362+00:00,944,65988,104010.44535761421,68104.58071286448,65299.861466868104,67591.94345378202,259946.5858872635,129127.99467182095,86076.38908343184,103231.53176683567,TASK2
2026-05-26T09:52:08.362+00:00,944,65989,104020.90597401929,68107.53114313258,65331.77975795028,67618.76554712838,259950.340980332,129039.81703994477,86082.28994396805,103228.38017086747,TASK2
2026-05-26T09:52:08.362+00:00,944,65990,104013.46284311567,68082.38543062037,65334.461967284915,67574.57614834025,259950.87742219892,128984.63058288462,86078.33368519945,103229.45305460133,TASK2
2026-05-26T09:52:08.362+00:00,944,65991,104004.67860754475,68087.48162835618,65288.93146382945,67597.91136955158,259952.4867477997,128965.11750997514,86077.8642985659,103223.61924929848,TASK2
2026-05-26T09:52:08.362+00:00,944,65992,104002.5998953104,68086.74402078915,65289.46790569638,67570.88811050511,259957.04650366856,129146.16664006312,86049.76815578558,103205.71550198979,TASK2
2026-05-26T09:52:08.362+00:00,944,65993,104005.81854651196,68096.93641626077,65297.78275463376,67561.03099120033,259960.26515487014,129124.23957875246,86058.61944658987,103202.83212695505,TASK2
2026-05-26T09:52:08.362+00:00,944,65994,104005.61738081186,68098.2775209281,65307.17048730499,67596.97259628445,259961.60625953745,129073.6128775612,86059.69233032373,103198.33942631954,TASK2
2026-05-26T09:52:08.362+00:00,944,65995,104013.73106404913,68085.73819228867,65309.18214430596,67610.24953249091,259961.338038604,129092.12012197019,86069.01300776159,103199.07703388656,TASK2
2026-05-26T09:52:08.362+00:00,944,65996,104004.41038661127,68110.41451816732,65305.22588553737,67621.24659076292,259958.1864426358,129038.27476957736,86059.15588845681,103192.7067867168,TASK2
2026-05-26T09:52:08.362+00:00,944,65997,104007.09259594591,68090.63322432438,65306.835211138154,67604.68394812154,259952.35263733295,128972.09125424518,86061.56987685798,103192.7067867168,TASK2
2026-05-26T09:52:08.362+00:00,944,65998,103998.30836037498,68086.67696555579,65296.17342903298,67569.88228200462,259944.6412854959,129056.31262735279,86057.6136180894,103195.12077511798,TASK2
2026-05-26T09:52:08.362+00:00,944,65999,104011.18296518123,68074.94229971676,65309.3162547727,67567.26712790335,259941.22146859422,129085.81693003379,86067.53779262754,103198.607647253,TASK2
2026-05-26T09:52:08.362+00:00,944,66000,104009.90891574728,68083.79359052105,65308.310426272204,67580.94639551001,259934.583000491,129081.59245033174,86062.5086501251,103198.87586818646,TASK2
2026-05-26T09:52:08.362+00:00,944,66001,104013.12756694884,68109.00635826663,65315.0159496088,67605.3545004552,259925.26232305312,129059.12894715415,86065.99552226013,103199.41231005339,TASK2
2026-05-26T09:52:08.362+00:00,944,66002,104014.73689254963,68093.78482029258,65321.72147294539,67588.52363688035,259923.45183175226,129002.06494355976,86070.28705719554,103206.11783338999,TASK2
2026-05-26T09:52:08.362+00:00,944,66003,104005.68443604522,68086.87813125589,65311.596132707135,67598.98425328544,259922.1777823183,129053.56336278479,86071.62816186287,103210.14114739194,TASK2
2026-05-26T09:52:08.362+00:00,944,66004,104011.31707564797,68086.40874462233,65308.7127576724,67590.2000177145,259925.9328753868,129045.04734814732,86077.79724333253,103217.65133352892,TASK2
2026-05-26T09:52:08.362+00:00,944,66005,104008.97014248016,68100.6244540959,65311.394967007036,67592.61400611568,259927.54220098758,129076.69741829603,86077.59607763244,103222.74753126473,TASK2
2026-05-26T09:52:08.362+00:00,944,66006,104007.69609304621,68114.03550076908,65303.95183610342,67597.17376198455,259928.34686378797,129116.93055831558,86074.17626073078,103229.72127553479,TASK2
2026-05-26T09:52:08.362+00:00,944,66007,104010.64652331431,68108.20169546625,65308.5115919723,67596.16793348407,259931.29729405607,129092.85772953721,86075.24914446463,103234.8174732706,TASK2
2026-05-26T09:52:08.362+00:00,944,66008,104008.2995901465,68109.54280013357,65332.9196969175,67606.89677082261,259933.44306152378,129080.58662183124,86079.00423753312,103230.861214502,TASK2
2026-05-26T09:52:08.362+00:00,944,66009,104004.07511044445,68112.49323040167,65319.575705477684,67611.4565266915,259929.4868027552,129071.53416532686,86085.44153993625,103232.47054010279,TASK2
2026-05-26T09:52:08.362+00:00,944,66010,104005.1479941783,68112.02384376811,65296.843981366634,67584.43326764503,259930.29146555558,129006.15531279508,86087.85552833742,103238.90784250591,TASK2
2026-05-26T09:52:08.362+00:00,944,66011,104010.51241284757,68106.19003846527,65302.47662096937,67595.43032591704,259932.70545395676,129005.41770522806,86084.1674905023,103233.07403720309,TASK2
2026-05-26T09:52:08.362+00:00,944,66012,104004.9468284782,68118.79642233807,65298.78858313424,67619.03376806184,259927.40809052085,128997.16991152405,86079.40656893331,103234.68336280386,TASK2
2026-05-26T09:52:08.362+00:00,944,66013,103996.43081384074,68122.01507353963,65304.421222736986,67644.5147567409,259918.6238549499,129093.4612266375,86070.35411242892,103229.38599936795,TASK2
2026-05-26T09:52:08.362+00:00,944,66014,104007.69609304621,68109.4757449002,65302.34251050264,67618.83260236174,259919.69673868376,129127.79350612086,86073.57276363048,103232.06820870259,TASK2
2026-05-26T09:52:08.362+00:00,944,66015,104009.84186051392,68095.86353252691,65307.706929171916,67555.06307543076,259922.11072708495,129067.24263039143,86079.74184510014,103238.23729017226,TASK2
2026-05-26T09:52:08.362+00:00,944,66016,104013.93222974923,68108.73813733317,65313.205458307915,67565.3895813691,259919.0261863501,129049.74121448293,86072.03049326307,103234.14692093694,TASK2
2026-05-26T09:52:08.362+00:00,944,66017,104011.31707564797,68111.42034666782,65312.73607167436,67597.84431431821,259912.1194973134,129006.62469942863,86074.17626073078,103228.58133656757,TASK2
2026-05-26T09:52:08.362+00:00,944,66018,103999.58240980894,68129.12292827641,65313.54073447475,67636.73634967045,259904.94458734326,129063.48753732294,86078.19957473273,103226.77084526668,TASK2
2026-05-26T09:52:08.362+00:00,944,66019,104002.26461914356,68123.28912297358,65305.29294077074,67586.37786941264,259905.21280827673,129127.3241194873,86060.02760649056,103220.40059809692,TASK2
2026-05-26T09:52:08.362+00:00,944,66020,104006.82437501245,68129.18998350979,65313.33956877465,67605.42155568856,259903.67053790932,129067.3096856248,86072.90221129682,103218.05366492912,TASK2
2026-05-26T09:52:08.362+00:00,944,66021,104003.13633717732,68134.55440217906,65306.96932160489,67619.10082329522,259913.326491514,129048.60127551571,86072.16460372979,103219.93121146336,TASK2
2026-05-26T09:52:08.362+00:00,944,66022,104013.06051171548,68113.16378273533,65309.919751872985,67640.02205610537,259914.6675961813,129032.03863287432,86069.81767056198,103219.93121146336,TASK2
2026-05-26T09:52:08.362+00:00,944,66023,104007.49492734611,68109.4757449002,65320.11214734461,67599.31952945226,259913.1253258139,129047.86366794868,86065.59319085993,103213.82918522706,TASK2
2026-05-26T09:52:08.362+00:00,944,66024,104009.90891574728,68114.30372170254,65315.61944670909,67587.0484217463,259908.63262517838,129027.81415317226,86076.32202819848,103214.63384802746,TASK2
2026-05-26T09:52:08.362+00:00,944,66025,104016.88266001733,68112.49323040167,65314.34539727514,67601.53235215334,259903.60348267594,129006.42353372854,86078.46779566619,103218.38894109594,TASK2
2026-05-26T09:52:08.362+00:00,944,66026,104011.31707564797,68111.48740190118,65325.34245554715,67619.77137562887,259902.32943324198,128979.40027468208,86085.44153993625,103221.60759229751,TASK2
2026-05-26T09:52:08.725+00:00,945,66027,104021.24125018613,68124.89844857436,65354.310316361225,67632.1095385682,259897.83673260646,129042.16397311258,86093.2199470067,103220.33354286356,TASK2
2026-05-26T09:52:08.725+00:00,945,66028,104014.87100301636,68110.74979433416,65316.02177810929,67625.73929139844,259901.32360474148,128984.02708578433,86086.84969983694,103228.64839180093,TASK2
2026-05-26T09:52:08.725+00:00,945,66029,104008.23253491313,68107.32997743248,65304.01889133679,67578.86768327566,259905.07869780998,129112.50491291343,86060.63110359086,103222.54636556463,TASK2
2026-05-26T09:52:08.725+00:00,945,66030,104008.03136921303,68121.54568690606,65306.96932160489,67597.10670675119,259907.49268621116,129070.72950252646,86075.65147586483,103226.03323769967,TASK2
2026-05-26T09:52:08.725+00:00,945,66031,104005.1479941783,68117.05298627054,65306.231714037865,67611.59063715822,259905.41397397683,129017.68881293402,86085.03920853605,103233.8116447701,TASK2
2026-05-26T09:52:08.725+00:00,945,66032,103997.70486327469,68132.34157947797,65304.95766460391,67646.99580037543,259901.18949427476,129049.07066214927,86079.47362416668,103228.5142813342,TASK2
2026-05-26T09:52:08.725+00:00,945,66033,103993.48038357263,68130.26286724364,65299.39208023454,67653.43310277857,259896.42857270577,129090.37668590268,86087.5202521706,103230.39182786844,TASK2
2026-05-26T09:52:08.725+00:00,945,66034,104010.91474424777,68105.92181753181,65313.33956877465,67587.51780837987,259905.01164257663,129041.62753124566,86081.15000500083,103232.26937440269,TASK2
2026-05-26T09:52:08.725+00:00,945,66035,104000.78940400951,68114.23666646918,65312.0655193407,67587.51780837987,259909.03495657857,129032.57507474125,86075.04797876453,103229.65422030143,TASK2
2026-05-26T09:52:08.725+00:00,945,66036,103983.42209856774,68133.2803527451,65302.20840003591,67621.04542506282,259895.15452327183,129072.80821476081,86077.99840903263,103222.21108939781,TASK2
2026-05-26T09:52:08.725+00:00,945,66037,103993.07805217244,68134.62145741242,65314.8147839087,67652.42727427807,259883.15163649933,129052.22225811747,86075.65147586483,103218.79127249614,TASK2
2026-05-26T09:52:08.725+00:00,945,66038,104000.58823830941,68134.88967834588,65310.59030420665,67663.960774417,259884.2245202332,128993.28070798882,86065.52613562657,103212.95746719331,TASK2
2026-05-26T09:52:08.725+00:00,945,66039,103991.53578180503,68119.66814037182,65300.73318490186,67608.5060964234,259885.0291830336,129072.13766242715,86065.32496992647,103212.21985962628,TASK2
2026-05-26T09:52:08.725+00:00,945,66040,103992.60866553888,68124.76433810763,65299.45913546791,67611.99296855842,259882.68224986576,129057.98900818694,86058.95472275671,103208.53182179116,TASK2
2026-05-26T09:52:08.725+00:00,945,66041,103997.83897374141,68134.15207077886,65311.19380130694,67633.11536706869,259878.9271567973,128973.56646937924,86074.24331596414,103208.93415319135,TASK2
2026-05-26T09:52:08.725+00:00,945,66042,103995.4920405736,68130.46403294374,65309.651530939525,67629.42732923356,259872.825130561,128846.76502308428,86083.09460676844,103215.37145559448,TASK2
2026-05-26T09:52:08.725+00:00,945,66043,103982.14804913379,68144.14330055038,65303.281283769764,67661.34562031574,259869.94175552623,128999.11451329166,86075.11503399789,103209.80587122511,TASK2
2026-05-26T09:52:08.725+00:00,945,66044,103986.97602593614,68157.2861262901,65303.549504703224,67645.58764047475,259866.5219386246,129176.14032937768,86073.30454269702,103210.34231309204,TASK2
2026-05-26T09:52:08.725+00:00,945,66045,103999.58240980894,68118.19292523777,65312.13257457406,67637.87628863766,259863.9067845233,129020.37102226865,86087.25203123712,103217.31605736208,TASK2
2026-05-26T09:52:08.725+00:00,945,66046,103992.9439417057,68097.33874766096,65316.96055137641,67596.36909918416,259855.92721175277,128997.6392981576,86085.17331900279,103221.33937136404,TASK2
2026-05-26T09:52:08.725+00:00,945,66047,103992.9439417057,68111.82267806801,65337.881784186575,67604.41572718807,259848.48408084916,129044.84618244722,86088.39197020435,103217.91955446238,TASK2
2026-05-26T09:52:08.725+00:00,945,66048,103994.01682543955,68111.62151236791,65322.12380434559,67607.36615745617,259849.02052271608,129045.38262431414,86082.82638583498,103223.82041499858,TASK2
2026-05-26T09:52:08.725+00:00,945,66049,104000.45412784269,68111.42034666782,65300.19674303493,67611.92591332506,259847.74647328214,129042.23102834594,86073.50570839712,103225.69796153283,TASK2
2026-05-26T09:52:08.725+00:00,945,66050,103990.32878760443,68110.14629723386,65301.537847702246,67626.94628559903,259841.64444704584,129017.08531583373,86075.91969679829,103220.66881903038,TASK2
2026-05-26T09:52:08.725+00:00,945,66051,103990.86522947135,68100.55739886253,65303.95183610342,67631.77426240138,259842.44910984623,129012.05617333128,86073.84098456394,103220.19943239682,TASK2
2026-05-26T09:52:08.725+00:00,945,66052,103989.5911800374,68098.4786866282,65312.2666850408,67609.3107592238,259842.71733077968,128990.93377482101,86077.59607763244,103220.46765333028,TASK2
2026-05-26T09:52:08.725+00:00,945,66053,103988.31713060345,68101.4291168963,65317.63110371007,67612.26118949188,259844.058435447,128917.7765152188,86081.88761256785,103218.38894109594,TASK2
2026-05-26T09:52:08.725+00:00,945,66054,103981.14222063331,68092.64488132535,65299.995577334834,67586.31081417928,259837.9564092107,129041.15814461208,86059.69233032373,103210.4093683254,TASK2
2026-05-26T09:52:08.725+00:00,945,66055,103984.89731370179,68097.20463719424,65302.14134480254,67615.27867499336,259832.39082484134,129045.18145861404,86063.17920245876,103207.2577723572,TASK2
2026-05-26T09:52:08.725+00:00,945,66056,103981.74571773359,68110.61568386742,65297.64864416703,67616.88800059413,259826.5570195385,129010.64801343059,86074.44448166424,103213.1586328934,TASK2
2026-05-26T09:52:08.725+00:00,945,66057,103981.74571773359,68112.22500946821,65295.83815286615,67613.73640462593,259819.91855143526,129007.4964174624,86067.00135076062,103208.39771132442,TASK2
2026-05-26T09:52:08.725+00:00,945,66058,103978.5941217654,68109.34163443347,65295.10054529912,67607.09793652271,259824.2100863707,128978.32739094822,86068.34245542793,103206.31899909009,TASK2
2026-05-26T09:52:08.725+00:00,945,66059,103978.3929560653,68106.19003846527,65299.660301168005,67622.6547506636,259820.79026946903,128893.10018934014,86066.26374319359,103201.28985658764,TASK2
2026-05-26T09:52:08.725+00:00,945,66060,103974.16847636325,68119.06464327153,65300.46496396839,67670.12985588667,259813.88358043233,128963.64229484109,86059.08883322345,103188.75052794821,TASK2
2026-05-26T09:52:08.725+00:00,945,66061,103976.31424383096,68110.01218676713,65289.803181863215,67660.54095751535,259811.804868198,129034.18440034203,86060.69815882422,103189.01874888167,TASK2
2026-05-26T09:52:08.725+00:00,945,66062,103973.43086879622,68111.08507050098,65296.776926133265,67595.96676778398,259805.7028419617,129026.74126943841,86065.25791469311,103195.18783035134,TASK2
2026-05-26T09:52:08.725+00:00,945,66063,103969.7428309611,68125.56900090801,65289.87023709658,67626.0075123319,259802.28302506002,129001.5955569262,86058.61944658987,103193.10911811699,TASK2
2026-05-26T09:52:08.725+00:00,945,66064,103979.39878456578,68118.39409093787,65304.08594657015,67622.58769543024,259801.0089756261,128981.27782121632,86074.44448166424,103197.93709491934,TASK2
2026-05-26T09:52:08.725+00:00,945,66065,103972.4920955291,68127.51360267564,65303.348339003125,67646.72757944197,259796.51627499057,129064.962752457,86080.6135631339,103197.19948735232,TASK2
2026-05-26T09:52:08.725+00:00,945,66066,103984.02559566803,68131.80513761105,65311.93140887396,67652.62843997817,259787.1955975527,129024.52844673734,86091.61062140591,103203.36856882198,TASK2
2026-05-26T09:52:08.725+00:00,945,66067,103984.02559566803,68123.8255648405,65307.43870823845,67643.57598347377,259783.77578065105,129049.47299354947,86094.82927260747,103211.95163869282,TASK2
2026-05-26T09:52:08.725+00:00,945,66068,103990.52995330453,68145.48440521769,65316.75938567631,67684.07734442678,259787.66498418627,128946.27498939932,86111.52602571559,103220.60176379702,TASK2
2026-05-26T09:52:08.725+00:00,945,66069,103987.37835733633,68127.84887884246,65321.58736247866,67691.3193096303,259791.1518563213,128967.19622220947,86109.7155344147,103225.69796153283,TASK2
2026-05-26T09:52:08.725+00:00,945,66070,103984.22676136813,68113.16378273533,65331.77975795028,67619.77137562887,259790.9506906212,129039.34765331121,86101.46774071071,103231.0623802021,TASK2
2026-05-26T09:52:08.725+00:00,945,66071,103990.93228470473,68105.72065183171,65347.336572091175,67612.06002379178,259788.87197838686,129009.91040586357,86094.56105167401,103236.15857793791,TASK2
2026-05-26T09:52:08.725+00:00,945,66072,103995.76026150708,68098.81396279501,65332.651475984036,67628.1532797996,259785.9886033521,128983.96003055095,86101.53479594407,103243.13232220797,TASK2
2026-05-26T09:52:08.725+00:00,945,66073,103990.99933993809,68101.2279511962,65311.79729840723,67629.49438446693,259784.71455391817,128950.49946910137,86084.70393236922,103240.5171681067,TASK2
2026-05-26T09:52:08.725+00:00,945,66074,103983.28798810102,68096.73525056067,65305.9634931044,67611.59063715822,259780.75829514957,128957.47321337143,86087.38614170386,103240.78538904016,TASK2
2026-05-26T09:52:08.725+00:00,945,66075,103989.18884863722,68103.1725529638,65312.937237374455,67630.36610250069,259771.97405957864,128842.47348814887,86094.62810690737,103241.59005184055,TASK2
2026-05-26T09:52:08.725+00:00,945,66076,103977.99062466511,68098.94807326175,65311.93140887396,67680.79163799186,259765.06737054195,128901.21387257741,86087.98963880415,103236.5609093381,TASK2
2026-05-26T09:52:09.031+00:00,946,66077,103975.6436914973,68118.25998047114,65305.5611617042,67635.52935546986,259769.35890547736,129061.07354892176,86073.57276363048,103231.53176683567,TASK2
2026-05-26T09:52:09.031+00:00,946,66078,103980.20344736618,68097.6740238278,65311.73024317387,67600.19124748601,259775.79620788048,129024.93077813754,86072.29871419653,103231.0623802021,TASK2
2026-05-26T09:52:09.031+00:00,946,66079,103977.05185139798,68087.28046265608,65307.23754253835,67600.99591028641,259772.10817004537,129020.43807750203,86068.87889729487,103231.59882206903,TASK2
2026-05-26T09:52:09.031+00:00,946,66080,103969.87694142782,68107.66525359932,65313.406624008014,67634.2553060359,259768.42013221025,128985.36819045164,86062.5086501251,103223.35102836502,TASK2
2026-05-26T09:52:09.031+00:00,946,66081,103972.55915076246,68113.83433506898,65307.841039638646,67647.93457364256,259770.83412061143,128965.31867567524,86051.57864708646,103209.20237412481,TASK2
2026-05-26T09:52:09.031+00:00,946,66082,103960.82448492343,68102.63611109687,65286.45042019492,67621.17953552956,259766.60964090936,128900.4762650104,86059.62527509037,103211.07992065906,TASK2
2026-05-26T09:52:09.031+00:00,946,66083,103960.35509828986,68119.26580897163,65287.79152486224,67618.56438142828,259765.60381240887,129036.46427827647,86056.47367912217,103205.51433628969,TASK2
2026-05-26T09:52:09.031+00:00,946,66084,103965.71951695914,68131.06753004402,65289.40085046302,67662.0161726494,259764.86620484185,129022.31562403626,86061.03343499106,103207.6601037574,TASK2
2026-05-26T09:52:09.031+00:00,946,66085,103965.25013032558,68102.16672446331,65291.81483886419,67643.84420440723,259761.44638794017,128986.4410741855,86068.00717926111,103215.17028989438,TASK2
2026-05-26T09:52:09.031+00:00,946,66086,103967.12767685982,68099.55157036205,65295.83815286615,67644.64886720762,259756.14902450427,128947.34787313317,86073.90803979732,103216.5113945617,TASK2
2026-05-26T09:52:09.031+00:00,946,66087,103967.12767685982,68095.05886972653,65299.32502500117,67630.50021296742,259748.4376726672,128970.95131527797,86064.85558329291,103216.5113945617,TASK2
2026-05-26T09:52:09.031+00:00,946,66088,103957.5387784885,68106.59236986547,65294.832324365656,67623.86174486419,259733.4843556266,129008.23402502942,86078.26662996609,103219.73004576327,TASK2
2026-05-26T09:52:09.031+00:00,946,66089,103971.75448796207,68120.00341653865,65307.43870823845,67667.04531515184,259726.04122472298,128941.78228876379,86081.2170602342,103214.1644613939,TASK2
2026-05-26T09:52:09.031+00:00,946,66090,103974.43669729671,68102.90433203035,65316.02177810929,67702.18225743559,259721.01208222055,128882.03607583477,86099.45608370972,103214.70090326082,TASK2
2026-05-26T09:52:09.031+00:00,946,66091,103963.2384733246,68113.90139030234,65310.45619373992,67653.96954464549,259717.59226531888,129000.05328655877,86094.42694120728,103215.23734512775,TASK2
2026-05-26T09:52:09.031+00:00,946,66092,103968.87111292734,68112.62734086839,65320.11214734461,67650.54972774383,259720.54269558698,128963.37407390762,86104.08289481197,103221.94286846434,TASK2
2026-05-26T09:52:09.031+00:00,946,66093,103970.74865946159,68121.4786316727,65294.966434832386,67650.34856204373,259725.10245145587,128986.97751605243,86100.93129884377,103220.93703996386,TASK2
2026-05-26T09:52:09.031+00:00,946,66094,103974.77197346355,68110.54862863406,65307.30459777172,67671.80623672082,259725.90711425626,128941.71523353043,86110.85547338193,103223.35102836502,TASK2
2026-05-26T09:52:09.031+00:00,946,66095,103975.30841533047,68074.94229971676,65323.93429564647,67631.64015193464,259723.0237392215,128988.92211782004,86105.82633087948,103224.96035396581,TASK2
2026-05-26T09:52:09.031+00:00,946,66096,103975.30841533047,68094.79064879306,65309.24919953933,67622.05125356332,259721.21324792065,128994.28653648931,86099.99252557666,103223.41808359839,TASK2
2026-05-26T09:52:09.031+00:00,946,66097,103974.30258682997,68103.64193959736,65307.43870823845,67668.721695986,259719.93919848668,128990.86671958765,86103.21117677822,103223.41808359839,TASK2
2026-05-26T09:52:09.031+00:00,946,66098,103977.52123803154,68079.569110819,65314.412452508506,67641.1619950726,259727.44938462367,128943.72689053141,86103.47939771168,103230.92826973538,TASK2
2026-05-26T09:52:09.031+00:00,946,66099,103972.82737169592,68075.07641018348,65314.546562975236,67613.33407322575,259736.77006206152,128930.1817333915,86098.04792380903,103236.9632407383,TASK2
2026-05-26T09:52:09.031+00:00,946,66100,103969.9439966612,68085.2688056551,65320.44742351144,67641.7654921729,259735.2277916941,128828.59305484212,86107.1674355468,103240.7183338068,TASK2
2026-05-26T09:52:09.031+00:00,946,66101,103968.40172629377,68075.94812821723,65321.78852817875,67659.19985284803,259731.27153292552,128905.84068367966,86098.38319997587,103235.68919130435,TASK2
2026-05-26T09:52:09.031+00:00,946,66102,103962.29970005748,68071.18720664826,65310.05386233972,67620.1066517957,259726.24239042308,128995.69469639,86081.0158945341,103233.07403720309,TASK2
2026-05-26T09:52:09.031+00:00,946,66103,103958.87988315582,68100.69150932926,65303.95183610342,67654.43893127904,259718.26281765255,128999.4497894585,86079.20540323322,103227.24023190024,TASK2
2026-05-26T09:52:09.031+00:00,946,66104,103964.24430182509,68088.4204016233,65303.48244946986,67660.33979181525,259720.14036418678,128879.62208743358,86088.32491497099,103233.14109243645,TASK2
2026-05-26T09:52:09.031+00:00,946,66105,103957.60583372187,68081.51371258662,65301.67195816898,67660.33979181525,259717.79343101897,128909.66283198152,86072.56693512999,103227.30728713362,TASK2
2026-05-26T09:52:09.031+00:00,946,66106,103957.87405465533,68105.11715473142,65312.66901644099,67647.53224224236,259708.74097451457,128896.58706147516,86069.95178102872,103218.52305156268,TASK2
2026-05-26T09:52:09.031+00:00,946,66107,103961.89736865729,68064.95106994522,65305.7623274043,67623.19119253053,259709.00919544804,128969.27493444382,86066.53196412706,103215.63967652795,TASK2
2026-05-26T09:52:09.031+00:00,946,66108,103956.86822615484,68090.43205862428,65298.319196500684,67636.06579733679,259701.83428547787,128946.54321033278,86072.96926653018,103216.7125602618,TASK2
2026-05-26T09:52:09.031+00:00,946,66109,103954.78951392049,68082.18426492027,65302.6107314361,67660.74212321544,259696.80514297544,128979.80260608227,86070.35411242892,103210.34231309204,TASK2
2026-05-26T09:52:09.031+00:00,946,66110,103954.78951392049,68087.54868358954,65297.31336800019,67663.15611161663,259689.36201207183,128986.77635035233,86079.74184510014,103212.48808055975,TASK2
2026-05-26T09:52:09.031+00:00,946,66111,103954.32012728693,68092.10843945843,65300.53201920176,67641.7654921729,259675.74979969853,128964.58106810821,86077.6631328658,103214.365627094,TASK2
2026-05-26T09:52:09.031+00:00,946,66112,103957.80699942195,68083.59242482095,65311.52907747377,67646.8616899087,259663.2104710591,128970.75014957787,86088.92841207127,103219.99826669673,TASK2
2026-05-26T09:52:09.031+00:00,946,66113,103956.532949988,68084.6653085548,65330.57276374969,67646.66052420861,259653.62157268779,128948.82308826722,86098.31614474251,103223.75335976522,TASK2
2026-05-26T09:52:09.031+00:00,946,66114,103960.01982212304,68086.81107602252,65307.841039638646,67661.14445461564,259648.59243018535,128857.158584256,86110.65430768183,103232.87287150299,TASK2
2026-05-26T09:52:09.031+00:00,946,66115,103959.81865642294,68083.65948005432,65306.566990204694,67683.94323396006,259642.22218301558,128920.45872455343,86111.99541234915,103231.0623802021,TASK2
2026-05-26T09:52:09.031+00:00,946,66116,103965.18307509221,68082.92187248729,65313.272513541284,67660.67506798208,259631.5604009104,128937.35664336165,86119.50559848614,103238.84078727255,TASK2
2026-05-26T09:52:09.031+00:00,946,66117,103962.03147912401,68089.62739582389,65320.5144787448,67667.1123703852,259623.58082813985,128922.40332632104,86120.04204035306,103240.45011287334,TASK2
2026-05-26T09:52:09.031+00:00,946,66118,103952.97902261962,68081.91604398681,65316.02177810929,67668.18525411906,259622.3067787059,128938.76480326233,86119.5726537195,103243.13232220797,TASK2
2026-05-26T09:52:09.031+00:00,946,66119,103955.39301102079,68070.98604094816,65309.38331000606,67639.0162276049,259623.64788337323,128967.46444314295,86108.37442974739,103239.98072623977,TASK2
2026-05-26T09:52:09.031+00:00,946,66120,103969.7428309611,68072.99769794913,65325.74478694735,67653.16488184509,259624.38549094024,128841.86999104857,86114.67762168379,103239.31017390611,TASK2
2026-05-26T09:52:09.031+00:00,946,66121,103966.5912349929,68067.9685554467,65328.96343814891,67671.6721262541,259626.53125840795,128781.05089438568,86111.79424664905,103234.0128104702,TASK2
2026-05-26T09:52:09.031+00:00,946,66122,103958.34344128889,68067.9685554467,65316.692330442944,67642.23487880646,259638.33297948036,128989.72678062043,86090.94006907225,103224.69213303234,TASK2
2026-05-26T09:52:09.031+00:00,946,66123,103962.90319715778,68068.50499731362,65311.6631879405,67644.9170881411,259648.79359588545,128943.92805623151,86084.56982190249,103220.73587426376,TASK2
2026-05-26T09:52:09.031+00:00,946,66124,103956.26472905454,68077.62450905138,65314.613618208605,67644.715922441,259658.18132855667,128948.48781210039,86076.32202819848,103213.29274336013,TASK2
2026-05-26T09:52:09.031+00:00,946,66125,103963.77491519153,68066.69450601275,65321.319141545195,67643.7100939405,259667.30084029443,128963.50818437435,86065.12380422637,103202.89918218841,TASK2
2026-05-26T09:52:09.031+00:00,946,66126,103955.25890055405,68048.25431683712,65307.43870823845,67628.7567768999,259669.1783868287,128907.24884358035,86075.04797876453,103209.06826365809,TASK2
2026-05-26T09:52:09.031+00:00,946,66127,103959.282214556,68057.64204950834,65309.852696639624,67654.77420744588,259672.6652589637,128856.89036332254,86070.28705719554,103209.06826365809,TASK2
2026-05-26T09:52:09.031+00:00,946,66128,103961.96442389065,68046.44382553623,65314.14423157504,67641.43021600606,259680.71188696762,128851.8612208201,86063.91681002578,103205.91666768989,TASK2
2026-05-26T09:52:09.031+00:00,946,66129,103949.42509525122,68055.29511634054,65311.52907747377,67631.84131763474,259686.0763056369,128886.19350030345,86061.83809779145,103204.64261825594,TASK2
2026-05-26T09:52:09.031+00:00,946,66130,103947.61460395034,68069.77904674757,65305.42705123747,67638.54684097132,259686.8809684373,128985.16702475154,86061.63693209135,103200.14991762041,TASK2
2026-05-26T09:52:09.031+00:00,946,66131,103960.4892087566,68060.19014837625,65307.841039638646,67646.32524804177,259693.05004990695,128888.67454393799,86067.00135076062,103200.14991762041,TASK2
2026-05-26T09:52:09.031+00:00,946,66132,103944.73122891561,68068.77321824708,65296.10637379961,67648.47101550948,259696.26870110852,128895.38006727459,86073.43865316374,103201.22280135426,TASK2
2026-05-26T09:52:09.031+00:00,946,66133,103942.92073761472,68065.6216222789,65294.29588249873,67650.88500391066,259694.18998887416,128898.06227660921,86072.70104559672,103195.92543791835,TASK2
2026-05-26T09:52:09.031+00:00,946,66134,103949.89448188478,68062.4700263107,65300.46496396839,67652.49432951144,259693.72060224062,128895.17890157449,86078.065464266,103193.04206288363,TASK2
2026-05-26T09:52:09.031+00:00,946,66135,103951.2355865521,68062.4700263107,65306.634045438055,67645.05119860782,259698.81679997643,128808.34237436562,86080.2112317337,103193.31028381709,TASK2
2026-05-26T09:52:09.031+00:00,946,66136,103944.86533938233,68077.75861951812,65303.214228536395,67704.3280249033,259700.96256744413,128812.36568836757,86071.15877522931,103185.59893198001,TASK2
2026-05-26T09:52:09.031+00:00,946,66137,103941.44552248067,68062.00063967714,65299.25796976781,67711.56999010681,259700.76140174404,128984.02708578433,86070.68938859574,103183.52021974567,TASK2
2026-05-26T09:52:09.031+00:00,946,66138,103950.56503421844,68046.77910170307,65309.45036523943,67612.39529995862,259704.51649481253,128967.19622220947,86076.59024913194,103193.71261521729,TASK2
2026-05-26T09:52:09.031+00:00,946,66139,103950.56503421844,68051.87529943888,65322.05674911222,67629.82966063375,259706.39404134676,128912.00976514933,86084.10043526893,103196.12660361845,TASK2
2026-05-26T09:52:09.031+00:00,946,66140,103956.46589475464,68055.63039250736,65326.348284047635,67645.92291664158,259704.04710817896,128850.11778475258,86092.95172607322,103198.8088129531,TASK2
2026-05-26T09:52:09.031+00:00,946,66141,103959.14810408928,68047.65081973682,65302.54367620274,67644.64886720762,259705.9246547132,128780.44739728539,86096.70681914172,103204.17323162236,TASK2
2026-05-26T09:52:09.031+00:00,946,66142,103954.11896158684,68038.59836323242,65310.05386233972,67637.74217817094,259705.18704714617,128905.70657321293,86089.53190917156,103199.68053098685,TASK2
2026-05-26T09:52:09.031+00:00,946,66143,103958.41049652225,68052.814072706,65314.07717634168,67657.05408538032,259705.45526807965,128889.14393057155,86088.52608067109,103201.02163565418,TASK2
2026-05-26T09:52:09.031+00:00,946,66144,103961.62914772381,68050.19891860473,65309.04803383923,67657.85874818072,259704.44943957916,128936.61903579462,86092.01295280611,103205.58139152305,TASK2
2026-05-26T09:52:09.031+00:00,946,66145,103971.55332226197,68056.30094484103,65316.088833342656,67641.49727123942,259706.79637274696,128872.916564097,86079.87595556688,103204.5085077892,TASK2
2026-05-26T09:52:09.031+00:00,946,66146,103959.01399362255,68067.5662240465,65311.327911773675,67646.05702710831,259708.13747741428,128903.76197144532,86078.33368519945,103206.11783338999,TASK2
2026-05-26T09:52:09.031+00:00,946,66147,103964.91485415875,68060.92775594327,65314.278342041776,67652.76255044491,259707.39986984726,128881.29846826773,86084.50276666913,103209.60470552501,TASK2
2026-05-26T09:52:09.031+00:00,946,66148,103958.00816512205,68044.90155516882,65316.692330442944,67639.68677993855,259705.32115761293,128852.93410455395,86091.74473187265,103216.3102288616,TASK2
2026-05-26T09:52:09.031+00:00,946,66149,103951.36969701883,68056.70327624123,65310.32208327318,67643.7100939405,259703.51066631204,128852.73293885385,86077.0596357655,103211.54930729262,TASK2
2026-05-26T09:52:09.031+00:00,946,66150,103959.14810408928,68055.1610058738,65317.29582754324,67653.09782661173,259696.06753540842,128923.00682342134,86075.78558633155,103205.44728105632,TASK2
2026-05-26T09:52:09.031+00:00,946,66151,103961.02565062353,68070.7178200147,65319.17337407749,67679.11525715771,259685.40575330323,128816.59016806963,86083.563993402,103205.71550198979,TASK2
2026-05-26T09:52:09.031+00:00,946,66152,103963.70785995816,68063.54291004455,65318.167545576995,67672.47678905449,259677.96262239962,128807.00126969829,86075.85264156492,103200.9545804208,TASK2
2026-05-26T09:52:09.031+00:00,946,66153,103958.67871745572,68071.85775898192,65312.0655193407,67625.6051809317,259673.73814269758,128896.58706147516,86078.53485089955,103203.9050106889,TASK2
2026-05-26T09:52:09.031+00:00,946,66154,103945.06650508243,68090.63322432438,65305.69527217094,67677.3718210902,259659.58948845736,128865.54048842675,86083.89926956884,103206.58722002355,TASK2
2026-05-26T09:52:09.031+00:00,946,66155,103951.2355865521,68079.43500035227,65306.499934971325,67659.19985284803,259655.90145062222,128922.13510538758,86082.62522013488,103207.39188282394,TASK2
2026-05-26T09:52:09.031+00:00,946,66156,103954.99067962059,68078.96561371871,65308.37748150557,67673.68378325507,259644.97144758358,128841.46765964838,86094.96338307421,103207.92832469086,TASK2
2026-05-26T09:52:09.031+00:00,946,66157,103951.03442085201,68070.44959908123,65312.40079550753,67643.97831487397,259637.2600957465,128875.79993913173,86106.49688321314,103215.43851082785,TASK2
2026-05-26T09:52:09.031+00:00,946,66158,103955.05773485395,68080.64199455285,65335.73601671887,67658.73046621447,259633.03561604445,128916.03307915128,86099.05375230953,103209.60470552501,TASK2
2026-05-26T09:52:09.031+00:00,946,66159,103955.86239765435,68076.14929391733,65305.22588553737,67672.14151288765,259629.07935727586,128872.38012223007,86096.70681914172,103213.62801952696,TASK2
2026-05-26T09:52:09.031+00:00,946,66160,103951.63791795229,68072.19303514875,65298.58741743415,67653.96954464549,259624.05021477342,128905.3712970461,86092.2141185062,103212.08574915955,TASK2
2026-05-26T09:52:09.031+00:00,946,66161,103950.36386851834,68064.74990424514,65300.73318490186,67648.94040214305,259615.53420013594,128910.73571571537,86098.9196418428,103214.49973756072,TASK2
2026-05-26T09:52:09.031+00:00,946,66162,103949.89448188478,68075.74696251714,65304.48827797035,67662.61966974969,259605.4088598977,128867.35097972762,86098.45025520923,103216.9137259619,TASK2
2026-05-26T09:52:09.031+00:00,946,66163,103961.15976109025,68060.52542454308,65311.99846410733,67660.54095751535,259608.3592901658,128857.49386042284,86081.08294976746,103211.616362526,TASK2
2026-05-26T09:52:09.031+00:00,946,66164,103954.52129298703,68065.88984321235,65317.899324643535,67665.3689343177,259606.28057793144,128889.94859337194,86089.12957777137,103209.00120842471,TASK2
2026-05-26T09:52:09.031+00:00,946,66165,103960.42215352324,68076.35045961743,65324.87306891359,67674.220225122,259600.98321449553,128845.22275271687,86099.32197324299,103215.17028989438,TASK2
2026-05-26T09:52:09.031+00:00,946,66166,103953.78368542,68030.81995616197,65314.21128680841,67653.63426847867,259599.44094412812,128813.10329593459,86081.95466780121,103213.89624046042,TASK2
2026-05-26T09:52:09.031+00:00,946,66167,103952.50963598605,68044.23100283516,65307.03637683825,67621.24659076292,259601.31849066238,128884.18184330247,86073.43865316374,103207.2577723572,TASK2
2026-05-26T09:52:09.031+00:00,946,66168,103954.3871825203,68060.8607007099,65308.9139233725,67672.74500998795,259604.53714186393,128746.65155966897,86090.33657197196,103209.40353982491,TASK2
2026-05-26T09:52:09.031+00:00,946,66169,103950.43092375172,68056.36800007439,65320.17920257797,67690.71581253002,259606.1464674647,128808.07415343216,86083.42988293526,103204.106176389,TASK2
2026-05-26T09:52:09.031+00:00,946,66170,103945.93822311619,68044.90155516882,65312.46785074089,67617.29033199433,259608.02401399895,128912.41209654952,86077.0596357655,103206.78838572364,TASK2
2026-05-26T09:52:09.031+00:00,946,66171,103942.786627148,68059.65370650931,65305.5611617042,67634.72469266946,259609.09689773282,128885.92527936999,86084.56982190249,103210.8116997256,TASK2
2026-05-26T09:52:09.031+00:00,946,66172,103946.60877544986,68082.25132015363,65308.84686813913,67685.48550432747,259611.1085547338,128836.9079037795,86076.59024913194,103206.45310955681,TASK2
2026-05-26T09:52:09.031+00:00,946,66173,103950.09564758488,68056.83738670795,65315.0159496088,67680.45636182502,259617.27763620345,128822.49102860583,86064.31914142598,103200.88752518744,TASK2
2026-05-26T09:52:09.031+00:00,946,66174,103946.94405161668,68038.39719753232,65321.453252011925,67635.73052116996,259613.0531565014,128800.02752542825,86069.95178102872,103201.9604089213,TASK2
2026-05-26T09:52:09.031+00:00,946,66175,103940.57380444692,68049.93069767127,65310.52324897328,67629.3602740002,259606.1464674647,128851.79416558673,86068.67773159477,103202.49685078823,TASK2
2026-05-26T09:52:09.031+00:00,946,66176,103945.40178124927,68059.05020940903,65309.517420472795,67658.32813481428,259598.7033365611,128842.74170908233,86067.67190309428,103202.76507172169,TASK2
2026-05-26T09:52:09.031+00:00,946,66177,103931.52134794251,68065.75573274562,65305.5611617042,67672.81206522131,259585.8957869882,128915.96602391792,86079.47362416668,103211.07992065906,TASK2
2026-05-26T09:52:09.031+00:00,946,66178,103935.00822007755,68060.45836930971,65314.680673441966,67684.07734442678,259578.9890979515,128865.87576459357,86096.3715429749,103221.80875799761,TASK2
2026-05-26T09:52:09.031+00:00,946,66179,103940.64085968028,68059.98898267615,65318.97220837739,67661.88206218267,259573.42351358215,128842.33937768213,86103.34528724494,103225.83207199957,TASK2
2026-05-26T09:52:09.031+00:00,946,66180,103946.27349928302,68056.56916577449,65310.18797280645,67682.26685312591,259568.3943710797,128774.27831581573,86115.68345018428,103231.73293253576,TASK2
2026-05-26T09:52:09.031+00:00,946,66181,103949.22392955112,68046.17560460277,65320.916810145,67714.98980700847,259564.70633324457,128770.32205704713,86113.8729588834,103230.99532496874,TASK2
2026-05-26T09:52:09.031+00:00,946,66182,103942.04901958097,68065.75573274562,65339.692275487454,67671.8732919542,259561.28651634292,128867.95447682792,86105.08872331247,103224.89329873244,TASK2
2026-05-26T09:52:09.031+00:00,946,66183,103940.2385282801,68054.28928784005,65317.22877230987,67656.65175398013,259560.54890877588,128904.70074471245,86105.08872331247,103226.77084526668,TASK2
2026-05-26T09:52:09.031+00:00,946,66184,103950.69914468518,68053.81990120649,65315.68650194246,67658.79752144784,259553.91044067265,128886.52877647028,86105.08872331247,103225.76501676619,TASK2
2026-05-26T09:52:09.031+00:00,946,66185,103940.03736258,68073.40002934933,65314.680673441966,67679.18231239107,259549.41774003714,128867.28392449426,86106.69804891324,103226.30145863313,TASK2
2026-05-26T09:52:09.031+00:00,946,66186,103946.47466498312,68049.59542150443,65317.36288277661,67685.88783572767,259551.02706563793,128802.44151382941,86109.64847918134,103233.00698196971,TASK2
2026-05-26T09:52:09.031+00:00,946,66187,103940.10441781336,68044.83449993546,65322.72730144588,67685.88783572767,259547.60724873625,128817.73010703684,86101.6689064108,103223.95452546532,TASK2
2026-05-26T09:52:09.031+00:00,946,66188,103939.90325211326,68048.05315113702,65317.16171707651,67651.62261147768,259543.91921090113,128859.84079359064,86097.17620577528,103221.60759229751,TASK2
2026-05-26T09:52:09.031+00:00,946,66189,103949.02276385103,68046.24265983613,65327.35411254813,67657.25525108042,259539.6947311991,128791.51151079076,86101.73596164417,103220.33354286356,TASK2
2026-05-26T09:52:09.031+00:00,946,66190,103940.50674921356,68047.58376450346,65328.69521721545,67666.64298375165,259529.56939096082,128828.52599960876,86092.68350513976,103211.0128654257,TASK2
2026-05-26T09:52:09.031+00:00,946,66191,103940.77497014702,68063.67702051127,65322.05674911222,67717.87318204321,259517.8347251218,128837.64551134652,86095.3657144744,103210.27525785867,TASK2
2026-05-26T09:52:09.031+00:00,946,66192,103942.92073761472,68047.91904067028,65316.75938567631,67682.26685312591,259507.70938488355,128848.1061277516,86087.65436263732,103212.95746719331,TASK2
2026-05-26T09:52:09.031+00:00,946,66193,103938.69625791267,68043.42634003477,65313.33956877465,67632.44481473503,259498.92514931262,128841.19943871492,86082.35699920141,103211.14697589242,TASK2
2026-05-26T09:52:09.031+00:00,946,66194,103933.39889447676,68055.22806110718,65320.31331304471,67664.63132675068,259493.6277858767,128837.77962181326,86090.40362720532,103209.33648459155,TASK2
2026-05-26T09:52:09.031+00:00,946,66195,103939.8361968799,68046.98026740317,65313.67484494148,67685.01611769391,259486.1846549731,128765.6952459449,86093.89049934036,103212.28691485965,TASK2
2026-05-26T09:52:09.031+00:00,946,66196,103936.95282184516,68046.5108807696,65307.03637683825,67676.50010305645,259473.3771054002,128823.63096757304,86084.56982190249,103211.0128654257,TASK2
2026-05-26T09:52:09.031+00:00,946,66197,103939.90325211326,68029.94823812821,65311.05969084021,67669.59341401975,259463.25176516193,128797.1441503935,86085.64270563635,103212.35397009301,TASK2
2026-05-26T09:52:09.031+00:00,946,66198,103940.70791491366,68036.65376146481,65316.96055137641,67650.61678297719,259459.0272854599,128816.18783666943,86084.3686562024,103212.62219102647,TASK2
2026-05-26T09:52:09.031+00:00,946,66199,103938.36098174585,68053.0152384061,65319.642760711045,67679.85286472473,259455.0710266913,128768.77978667972,86091.87884233937,103210.8116997256,TASK2
2026-05-26T09:52:09.031+00:00,946,66200,103928.50386244105,68043.96278190169,65316.491164742845,67680.92574845858,259441.19059338456,128810.35403136659,86086.58147890346,103210.6105340255,TASK2
2026-05-26T09:52:09.031+00:00,946,66201,103931.99073457609,68035.98320913115,65313.33956877465,67660.07157088179,259430.79703221284,128888.67454393799,86088.99546730464,103218.12072016248,TASK2
2026-05-26T09:52:09.350+00:00,947,66202,103939.76914164652,68030.68584569525,65314.94889437543,67648.33690504276,259423.08568037575,128825.17323794046,86092.48233943967,103223.75335976522,TASK2
2026-05-26T09:52:09.350+00:00,947,66203,103931.72251364261,68061.73241874366,65315.15006007553,67690.98403346348,259413.1615058376,128781.85555718608,86108.37442974739,103223.08280743157,TASK2
2026-05-26T09:52:09.350+00:00,947,66204,103933.60006017686,68054.82572970698,65306.09760357113,67719.41545241063,259401.1586190651,128854.8116510882,86110.5201972151,103221.27231613068,TASK2
2026-05-26T09:52:09.350+00:00,947,66205,103943.79245564848,68016.53719145503,65315.21711530889,67662.08322788277,259389.6921741595,128851.66005512,86102.54062444456,103219.99826669673,TASK2
2026-05-26T09:52:09.350+00:00,947,66206,103936.34932474486,68036.11731959788,65322.45908051242,67673.88494895516,259384.12658979016,128850.92244755298,86100.73013314368,103220.53470856366,TASK2
2026-05-26T09:52:09.350+00:00,947,66207,103935.07527531091,68037.4584242652,65347.40362732454,67701.24348416846,259377.48812168694,128828.19072344192,86100.52896744358,103214.96912419428,TASK2
2026-05-26T09:52:09.350+00:00,947,66208,103940.17147304672,68027.33308402695,65310.72441467338,67646.8616899087,259375.14118851913,128795.53482479272,86105.89338611285,103220.06532193009,TASK2
2026-05-26T09:52:09.350+00:00,947,66209,103937.288098012,68040.74413070013,65300.59907443512,67666.17359711809,259379.43272345455,128729.61953039402,86114.20823505023,103222.21108939781,TASK2
2026-05-26T09:52:09.350+00:00,947,66210,103938.09276081237,68036.51965099807,65308.37748150557,67692.19102766407,259378.6951158875,128706.88780628298,86112.12952281589,103223.01575219819,TASK2
2026-05-26T09:52:09.350+00:00,947,66211,103931.1860717757,68036.31848529798,65308.64570243903,67649.61095447671,259369.10621751618,128809.88464473303,86098.78553137607,103220.13237716346,TASK2
2026-05-26T09:52:09.350+00:00,947,66212,103937.0869323119,68041.95112490072,65317.49699324334,67667.58175701876,259361.12664474564,128844.21692421638,86093.75638887362,103218.32188586258,TASK2
2026-05-26T09:52:09.350+00:00,947,66213,103933.39889447676,68044.09689236843,65318.30165604373,67683.13857115967,259357.97504877744,128840.79710731472,86090.8730138389,103219.6629905299,TASK2
2026-05-26T09:52:09.350+00:00,947,66214,103935.54466194447,68043.09106386793,65321.78852817875,67658.79752144784,259355.62811560964,128835.23152294535,86080.74767360064,103213.29274336013,TASK2
2026-05-26T09:52:09.350+00:00,947,66215,103926.49220544008,68057.03855240805,65307.37165300508,67681.05985892532,259359.11498774466,128837.37729041306,86079.47362416668,103208.80004272462,TASK2
2026-05-26T09:52:09.350+00:00,947,66216,103927.8333101074,68038.33014229896,65310.85852514011,67687.76538226192,259358.10915924417,128743.29879800067,86086.7155893702,103212.55513579311,TASK2
2026-05-26T09:52:09.350+00:00,947,66217,103923.34060947188,68031.69167419574,65311.93140887396,67681.93157695908,259356.56688887675,128794.26077535877,86082.22288873469,103208.59887702452,TASK2
2026-05-26T09:52:09.350+00:00,947,66218,103929.777911875,68041.61584873388,65311.93140887396,67680.92574845858,259352.61063010816,128800.96629869536,86091.34240047245,103207.0566066571,TASK2
2026-05-26T09:52:09.350+00:00,947,66219,103929.30852524145,68032.29517129602,65309.3162547727,67699.9694347345,259354.21995570895,128755.70401617336,86085.24037423615,103210.0070369252,TASK2
2026-05-26T09:52:09.350+00:00,947,66220,103929.5767461749,68023.51093572509,65309.3162547727,67656.31647781329,259351.6048016077,128752.55242020517,86076.18791773175,103210.54347879213,TASK2
2026-05-26T09:52:09.350+00:00,947,66221,103929.10735954135,68020.62756069035,65306.96932160489,67676.96948969,259344.42989163753,128835.96913051237,86076.72435959868,103214.03035092716,TASK2
2026-05-26T09:52:09.350+00:00,947,66222,103925.41932170623,68026.2602002931,65310.992635606846,67681.52924555888,259334.57277233273,128763.34831277709,86090.40362720532,103221.80875799761,TASK2
2026-05-26T09:52:09.350+00:00,947,66223,103931.58840317589,68024.98615085914,65323.062577612705,67663.62549825019,259329.81185076377,128750.00432133727,86084.83804283595,103219.19360389633,TASK2
2026-05-26T09:52:09.350+00:00,947,66224,103928.43680720769,68025.4555374927,65316.15588857602,67650.214451577,259330.01301646387,128826.04495597421,86079.40656893331,103219.73004576327,TASK2
2026-05-26T09:52:09.350+00:00,947,66225,103932.7283421431,68039.93946789973,65312.46785074089,67690.71581253002,259325.52031582833,128817.7971622702,86083.1616620018,103217.91955446238,TASK2
2026-05-26T09:52:09.350+00:00,947,66226,103927.69919964066,68018.01240658909,65308.24337103884,67702.78575453589,259318.34540585818,128803.11206616307,86093.6222784069,103222.47931033127,TASK2
2026-05-26T09:52:09.350+00:00,947,66227,103928.50386244105,68012.17860128624,65308.24337103884,67671.20273962054,259314.3891470896,128817.32777563664,86097.37737147538,103225.96618246629,TASK2
2026-05-26T09:52:09.350+00:00,947,66228,103932.527176443,68032.29517129602,65318.43576651046,67699.36593763421,259312.5786557887,128691.33099214209,86100.32780174348,103219.32771436307,TASK2
2026-05-26T09:52:09.350+00:00,947,66229,103927.49803394056,67996.42062144526,65313.94306587494,67667.78292271886,259309.15883888706,128790.30451659019,86092.08000803947,103215.63967652795,TASK2
2026-05-26T09:52:09.350+00:00,947,66230,103930.44846420866,68019.21940078968,65304.890609370545,67671.00157392044,259307.34834758617,128781.25206008578,86086.24620273664,103215.63967652795,TASK2
2026-05-26T09:52:09.350+00:00,947,66231,103920.85956583734,68035.3126567975,65300.39790873503,67706.6749580711,259306.34251908568,128727.94314955987,86092.95172607322,103218.59010679604,TASK2
2026-05-26T09:52:09.350+00:00,947,66232,103915.56220240143,68016.33602575494,65298.319196500684,67683.94323396006,259304.5320277848,128780.78267345222,86093.75638887362,103222.61342079799,TASK2
2026-05-26T09:52:09.350+00:00,947,66233,103922.53594667149,68010.50222045211,65303.415394236494,67669.79457971985,259303.25797835086,128824.5026856068,86090.33657197196,103217.31605736208,TASK2
2026-05-26T09:52:09.350+00:00,947,66234,103924.14527227228,68011.84332511942,65304.48827797035,67671.6721262541,259303.25797835086,128802.57562429615,86090.13540627186,103214.43268232736,TASK2
2026-05-26T09:52:09.350+00:00,947,66235,103919.65257163675,68021.23105779065,65302.40956573601,67688.57004506231,259298.22883584842,128798.3511445941,86082.15583350131,103210.2082026253,TASK2
2026-05-26T09:52:09.350+00:00,947,66236,103920.45723443714,68029.81412766149,65301.135516302056,67715.12391747521,259296.95478641446,128774.01009488227,86081.41822593429,103207.59304852404,TASK2
2026-05-26T09:52:09.350+00:00,947,66237,103915.96453380163,68040.8111859335,65299.861466868104,67710.36299590622,259290.85276017815,128750.74192890429,86087.05086553704,103204.44145255584,TASK2
2026-05-26T09:52:09.350+00:00,947,66238,103921.59717340437,68015.93369435474,65306.03054833777,67691.65458579714,259290.65159447805,128745.98100733531,86088.39197020435,103199.68053098685,TASK2
2026-05-26T09:52:09.350+00:00,947,66239,103914.69048436767,68010.90455185229,65297.51453370029,67678.84703622425,259290.45042877796,128759.3920540085,86074.5115368976,103191.96917914978,TASK2
2026-05-26T09:52:09.350+00:00,947,66240,103914.22109773412,68007.7529558841,65301.269626768786,67661.211509849,259281.9344141405,128780.84972868559,86061.43576639125,103182.64850171191,TASK2
2026-05-26T09:52:09.350+00:00,947,66241,103909.46017616513,68013.38559548683,65303.95183610342,67665.23482385096,259267.7857599003,128796.67476375995,86065.72730132667,103183.18494357883,TASK2
2026-05-26T09:52:09.350+00:00,947,66242,103915.36103670133,68020.35933975689,65323.53196424627,67681.05985892532,259260.0744080632,128771.52905124772,86069.48239439516,103184.79426917962,TASK2
2026-05-26T09:52:09.350+00:00,947,66243,103914.62342913431,68013.72087165367,65294.899379599025,67701.44464986856,259256.65459116155,128682.01031470422,86081.28411546756,103192.84089718353,TASK2
2026-05-26T09:52:09.350+00:00,947,66244,103915.15987100123,68008.15528728429,65289.60201616312,67727.19385948108,259254.5758789272,128786.08003688813,86075.18208923127,103189.95752214879,TASK2
2026-05-26T09:52:09.350+00:00,947,66245,103915.69631286817,68002.58970291492,65290.67489989697,67670.6662977536,259255.64876266106,128786.34825782159,86062.10631872491,103194.78549895114,TASK2
2026-05-26T09:52:09.350+00:00,947,66246,103912.27649596651,67995.68301387824,65285.64575739452,67651.95788764452,259262.6225069311,128763.34831277709,86065.59319085993,103199.34525482003,TASK2
2026-05-26T09:52:09.350+00:00,947,66247,103912.81293783343,68009.36228148488,65294.22882726536,67673.14734138815,259267.45048373344,128774.61359198256,86075.78558633155,103199.14408911993,TASK2
2026-05-26T09:52:09.350+00:00,947,66248,103911.00244653256,68023.84621189191,65298.52036220078,67713.3804814077,259268.25514653383,128758.31917027464,86089.73307487166,103204.77672872266,TASK2
2026-05-26T09:52:09.350+00:00,947,66249,103916.03158903499,67985.35650793988,65304.62238843708,67675.0248879224,259265.90821336603,128689.65461130794,86100.86424361041,103216.17611839487,TASK2
2026-05-26T09:52:09.350+00:00,947,66250,103913.14821400026,67991.52558940955,65303.348339003125,67668.65464075263,259261.14729179707,128742.49413520028,86096.90798484182,103214.90206896092,TASK2
2026-05-26T09:52:09.350+00:00,947,66251,103911.33772269938,67992.86669407686,65298.85563836761,67685.82078049431,259261.683733664,128640.10079385052,86106.56393844652,103219.99826669673,TASK2
2026-05-26T09:52:09.654+00:00,948,66252,103904.4310336627,68000.10865928038,65300.73318490186,67701.3775946352,259258.5321376958,128788.42697005594,86098.85258660943,103212.28691485965,TASK2
2026-05-26T09:52:09.658+00:00,948,66253,103915.15987100123,68007.08240355043,65299.995577334834,67704.59624583676,259262.28723076428,128777.76518795076,86090.60479290542,103211.81752822608,TASK2
2026-05-26T09:52:09.658+00:00,948,66254,103911.74005409957,67992.3973074433,65302.14134480254,67697.15311493314,259264.432998232,128769.51739424675,86087.18497600376,103212.08574915955,TASK2
2026-05-26T09:52:09.658+00:00,948,66255,103906.71091159713,68006.61301691688,65303.75067040332,67715.12391747521,259260.20851852992,128805.45899933088,86089.59896440494,103211.07992065906,TASK2
2026-05-26T09:52:09.658+00:00,948,66256,103909.66134186523,67999.97454881365,65303.549504703224,67729.33962694879,259256.5204806948,128717.28136745469,86105.15577854583,103218.59010679604,TASK2
2026-05-26T09:52:09.658+00:00,948,66257,103903.55931562893,67999.77338311356,65290.205513263405,67695.61084456573,259257.59336442867,128827.78839204174,86093.15289177332,103214.63384802746,TASK2
2026-05-26T09:52:09.658+00:00,948,66258,103912.41060643323,67985.35650793988,65297.17925753346,67658.93163191457,259261.0802365637,128742.56119043364,86091.34240047245,103213.09157766003,TASK2
2026-05-26T09:52:09.658+00:00,948,66259,103899.8712777938,67978.18159796973,65293.222998764875,67671.53801578736,259257.9286405955,128757.04512084069,86090.60479290542,103210.47642355876,TASK2
2026-05-26T09:52:09.658+00:00,948,66260,103904.16281272922,67988.91043530828,65299.39208023454,67681.19396939206,259257.45925396192,128769.38328378001,86082.08877826795,103202.22862985476,TASK2
2026-05-26T09:52:09.658+00:00,948,66261,103899.40189116025,67992.12908650984,65288.462077195894,67687.63127179518,259253.23477425988,128747.18800153589,86073.57276363048,103190.49396401572,TASK2
2026-05-26T09:52:09.658+00:00,948,66262,103902.35232142835,67983.61307187237,65290.33962373014,67689.50881832943,259247.93741082397,128715.87320755402,86074.1092054974,103183.05083311211,TASK2
2026-05-26T09:52:09.658+00:00,948,66263,103895.71385332511,67991.92792080974,65283.70115562691,67710.16183020613,259245.85869858964,128674.09779716704,86073.90803979732,103181.50856274468,TASK2
2026-05-26T09:52:09.658+00:00,948,66264,103894.1715829577,67984.75301083959,65283.96937656038,67690.11231542972,259250.68667539197,128750.00432133727,86074.17626073078,103181.3073970446,TASK2
2026-05-26T09:52:09.658+00:00,948,66265,103894.43980389116,67979.72386833714,65289.06557429619,67687.76538226192,259246.4621956899,128786.21414735485,86069.41533916179,103182.91672264537,TASK2
2026-05-26T09:52:09.658+00:00,948,66266,103899.26778069351,67972.01251650006,65294.42999296546,67676.29893735635,259241.43305318747,128721.63995762348,86060.89932452432,103182.71555694527,TASK2
2026-05-26T09:52:09.658+00:00,948,66267,103890.21532418912,67975.49938863509,65294.22882726536,67680.3222513583,259240.15900375354,128729.95480656085,86069.48239439516,103185.39776627992,TASK2
2026-05-26T09:52:09.658+00:00,948,66268,103885.45440262013,67977.91337703627,65280.61661489208,67688.63710029567,259243.10943402164,128681.74209377075,86068.20834496121,103190.76218494918,TASK2
2026-05-26T09:52:09.658+00:00,948,66269,103890.8188212894,67972.07957173343,65284.37170796057,67714.38630990818,259242.10360552114,128589.80936882609,86067.47073739418,103184.12371684596,TASK2
2026-05-26T09:52:09.658+00:00,948,66270,103884.44857411964,67971.34196416641,65282.024774792764,67679.58464379127,259234.39225368405,128783.19666185339,86059.49116462364,103183.11788834547,TASK2
2026-05-26T09:52:09.658+00:00,948,66271,103884.24740841954,67980.46147590417,65281.823609092666,67692.99569046445,259229.09489024815,128748.9314376034,86065.92846702677,103186.06831861357,TASK2
2026-05-26T09:52:09.658+00:00,948,66272,103890.68471082268,67985.02123177305,65271.966489787876,67684.74789676044,259229.09489024815,128699.377620146,86069.41533916179,103185.06249011308,TASK2
2026-05-26T09:52:09.658+00:00,948,66273,103890.95293175614,67984.55184513949,65275.72158285637,67712.91109477413,259231.77709958277,128698.90823351243,86084.43571143576,103187.20825758079,TASK2
2026-05-26T09:52:09.658+00:00,948,66274,103897.1220132258,67947.87263248833,65288.596187662624,67687.49716132844,259238.2144019859,128742.09180380008,86085.50859516961,103194.45022278432,TASK2
2026-05-26T09:52:09.658+00:00,948,66275,103895.04330099146,67969.06208623196,65285.71281262789,67682.46801882601,259238.2144019859,128741.08597529959,86077.2608014656,103197.13243211895,TASK2
2026-05-26T09:52:09.658+00:00,948,66276,103898.93250452669,67991.25736847609,65289.73612662985,67693.39802186465,259239.2202304864,128636.14453508193,86092.34822897294,103201.89335368793,TASK2
2026-05-26T09:52:09.658+00:00,948,66277,103900.54183012746,67963.16122569576,65293.222998764875,67696.08023119929,259236.60507638514,128772.66899021494,86100.39485697685,103199.27819958665,TASK2
2026-05-26T09:52:09.658+00:00,948,66278,103902.68759759517,67968.52564436503,65301.80606863571,67693.46507709802,259234.79458508425,128786.88469968853,86103.07706631148,103207.0566066571,TASK2
2026-05-26T09:52:09.658+00:00,948,66279,103900.8771062943,67970.40319089928,65312.53490597426,67704.46213537002,259227.35145418064,128755.30168477318,86102.33945874446,103210.0070369252,TASK2
2026-05-26T09:52:09.658+00:00,948,66280,103906.50974589703,67977.6451561028,65302.946007602935,67693.53213233138,259225.80918381322,128796.33948759311,86095.70099064123,103203.63678975544,TASK2
2026-05-26T09:52:09.658+00:00,948,66281,103903.35814992884,67991.86086557638,65301.94017910244,67714.98980700847,259220.78004131076,128765.82935641162,86110.7213629152,103208.4647665578,TASK2
2026-05-26T09:52:09.658+00:00,948,66282,103901.01121676102,67993.73841211062,65291.81483886419,67740.47079568752,259219.50599187682,128770.65733321397,86115.54933971755,103209.00120842471,TASK2
2026-05-26T09:52:09.658+00:00,948,66283,103906.64385636376,67982.80840907198,65296.10637379961,67742.08012128831,259222.99286401185,128695.08608521057,86096.30448774152,103203.97206592227,TASK2
2026-05-26T09:52:09.658+00:00,948,66284,103899.73716732707,67985.22239747315,65300.39790873503,67696.28139689939,259221.18237271096,128750.33959750409,86085.9109265698,103196.79715595212,TASK2
2026-05-26T09:52:09.658+00:00,948,66285,103897.9266760262,67981.26613870457,65293.7594406318,67685.35139386074,259216.95789300892,128776.35702805007,86089.39779870484,103199.21114435329,TASK2
2026-05-26T09:52:09.658+00:00,948,66286,103903.55931562893,67982.87546430534,65294.832324365656,67690.17937066309,259216.2202854419,128691.12982644199,86087.05086553704,103194.18200185084,TASK2
2026-05-26T09:52:09.658+00:00,948,66287,103896.65262659224,67978.11454273637,65303.68361516996,67725.58453388029,259209.85003827212,128656.32816032508,86091.61062140591,103188.07997561454,TASK2
2026-05-26T09:52:09.658+00:00,948,66288,103895.64679809175,67980.52853113753,65298.65447266751,67711.43587964008,259209.64887257203,128799.82635972815,86087.1179207704,103187.87880991446,TASK2
2026-05-26T09:52:09.658+00:00,948,66289,103899.6701120937,67988.57515914144,65287.992690562336,67682.26685312591,259212.8675237736,128763.41536801045,86091.14123477235,103193.24322858373,TASK2
2026-05-26T09:52:09.658+00:00,948,66290,103903.4252051622,67983.27779570554,65294.698213898926,67689.50881832943,259212.8675237736,128705.2784806822,86090.6718481388,103193.04206288363,TASK2
2026-05-26T09:52:09.658+00:00,948,66291,103895.71385332511,67983.07663000544,65294.698213898926,67709.6253883392,259208.1066022046,128683.619640305,86093.35405747342,103193.31028381709,TASK2
2026-05-26T09:52:09.658+00:00,948,66292,103891.48937362307,67991.65969987628,65297.91686510049,67700.84115276826,259200.12702943408,128736.99560606427,86085.64270563635,103188.28114131464,TASK2
2026-05-26T09:52:09.658+00:00,948,66293,103896.85379229234,67990.65387137579,65294.76526913229,67688.57004506231,259198.04831719972,128731.16180076145,86078.46779566619,103185.12954534646,TASK2
2026-05-26T09:52:09.658+00:00,948,66294,103894.50685912454,67988.30693820798,65291.881894097554,67696.88489399968,259197.57893056617,128735.1851147634,86081.68644686775,103184.92837964636,TASK2
2026-05-26T09:52:09.658+00:00,948,66295,103890.01415848902,67991.793810343,65292.41833596448,67705.19974293705,259196.3048811322,128740.01309156574,86082.22288873469,103185.73304244674,TASK2
2026-05-26T09:52:09.658+00:00,948,66296,103895.64679809175,67983.00957477208,65294.832324365656,67701.51170510193,259193.9579479644,128715.13559998698,86084.90509806931,103191.90212391641,TASK2
2026-05-26T09:52:09.658+00:00,948,66297,103899.93833302717,67996.1524005118,65302.34251050264,67720.01894951092,259186.5148170608,128611.66937490337,86103.94878434524,103199.68053098685,TASK2
2026-05-26T09:52:09.658+00:00,948,66298,103896.5185161255,67968.05625773147,65303.95183610342,67712.84403954077,259175.58481402215,128666.38644532996,86109.84964488144,103205.58139152305,TASK2
2026-05-26T09:52:09.658+00:00,948,66299,103886.39317588725,67979.58975787042,65287.38919346204,67693.59918756475,259179.6081280241,128727.00437629275,86078.53485089955,103198.13826061944,TASK2
2026-05-26T09:52:09.658+00:00,948,66300,103891.48937362307,67985.22239747315,65290.071402796675,67694.6720712986,259182.02211642527,128734.51456242973,86076.99258053214,103192.3044553166,TASK2
2026-05-26T09:52:09.658+00:00,948,66301,103888.0695567214,68007.48473495063,65294.3629377321,67699.76826903441,259175.92009018897,128774.74770244928,86085.30742946951,103192.1032896165,TASK2
2026-05-26T09:52:09.658+00:00,948,66302,103897.18906845916,67982.87546430534,65297.58158893366,67705.66912957061,259172.23205235385,128691.66626830891,86099.52313894308,103198.27237108618,TASK2
2026-05-26T09:52:09.658+00:00,948,66303,103896.98790275907,67967.38570539781,65298.118030800586,67689.64292879617,259173.3049360877,128706.95486151634,86103.54645294504,103198.54059201964,TASK2
2026-05-26T09:52:09.658+00:00,948,66304,103895.1774114582,67974.35944966787,65304.01889133679,67700.63998706816,259172.03088665375,128715.00148952025,86093.15289177332,103195.92543791835,TASK2
2026-05-26T09:52:09.658+00:00,948,66305,103888.00250148804,67984.55184513949,65297.64864416703,67718.34256867677,259172.03088665375,128734.04517579617,86081.68644686775,103190.35985354899,TASK2
2026-05-26T09:52:09.658+00:00,948,66306,103894.9762457581,67978.71803983666,65293.9606063319,67715.72741457551,259168.61106975208,128680.4680443368,86088.66019113781,103190.89629541592,TASK2
2026-05-26T09:52:09.658+00:00,948,66307,103899.06661499341,67976.10288573538,65299.25796976781,67712.10643197375,259170.42156105296,128637.48563974925,86093.15289177332,103191.03040588264,TASK2
2026-05-26T09:52:09.658+00:00,948,66308,103892.42814689019,67976.90754853578,65307.03637683825,67703.05397546935,259168.61106975208,128685.49718683925,86099.85841510992,103190.56101924909,TASK2
2026-05-26T09:52:09.658+00:00,948,66309,103886.86256252082,67984.14951373929,65301.739013402344,67722.09766174527,259168.14168311853,128701.05400098015,86106.29571751304,103189.82341168207,TASK2
2026-05-26T09:52:09.658+00:00,948,66310,103893.83630679088,67976.43816190222,65294.29588249873,67693.73329803148,259171.36033432008,128771.86432741456,86067.47073739418,103177.01586210917,TASK2
2026-05-26T09:52:09.658+00:00,948,66311,103891.2211526896,67985.55767363998,65295.10054529912,67690.84992299674,259168.20873835188,128741.89063809998,86070.68938859574,103175.2053708083,TASK2
2026-05-26T09:52:09.658+00:00,948,66312,103888.8742195218,67981.86963580485,65292.75361213131,67707.4796208715,259160.76560744827,128716.20848372084,86076.05380726502,103177.351138276,TASK2
2026-05-26T09:52:09.658+00:00,948,66313,103888.6730538217,67969.86674903236,65299.45913546791,67705.13268770369,259154.66358121196,128690.5263293417,86082.7593306016,103186.47065001377,TASK2
2026-05-26T09:52:09.658+00:00,948,66314,103893.50103062404,67969.66558333226,65310.72441467338,67692.3251381308,259147.48867124182,128691.33099214209,86081.75350210113,103187.00709188069,TASK2
2026-05-26T09:52:09.658+00:00,948,66315,103887.39900438774,67971.00668799957,65296.575760433174,67693.93446373158,259141.92308687244,128697.76829454521,86077.2608014656,103185.46482151328,TASK2
2026-05-26T09:52:09.658+00:00,948,66316,103887.66722532122,67974.49356013461,65298.98974883434,67697.4213358666,259142.19130780592,128710.91112028493,86075.71853109819,103189.21991458177,TASK2
2026-05-26T09:52:09.658+00:00,948,66317,103888.74010905507,67979.85797880388,65298.52036220078,67710.8323825398,259143.53241247323,128658.67509349289,86071.22583046267,103192.43856578333,TASK2
2026-05-26T09:52:09.658+00:00,948,66318,103885.58851308687,67968.12331296485,65301.470792468885,67715.39213840867,259140.38081650503,128656.0599393916,86070.75644382912,103190.35985354899,TASK2
2026-05-26T09:52:09.658+00:00,948,66319,103892.83047829039,67953.4382168577,65307.63987393855,67716.19680120907,259140.17965080493,128630.64600594592,86070.28705719554,103188.54936224812,TASK2
2026-05-26T09:52:09.658+00:00,948,66320,103885.92378925369,67953.4382168577,65299.39208023454,67692.1239724307,259141.78897640572,128658.54098302615,86072.16460372979,103186.73887094723,TASK2
2026-05-26T09:52:09.658+00:00,948,66321,103877.13955368276,67968.45858913167,65289.53496092975,67706.8761237712,259135.1505083025,128719.69535585587,86071.42699616277,103191.29862681612,TASK2
2026-05-26T09:52:09.658+00:00,948,66322,103884.38151888628,67960.21079542766,65293.82649586517,67691.11814393022,259128.51204019928,128707.96069001683,86071.42699616277,103198.0041501527,TASK2
2026-05-26T09:52:09.658+00:00,948,66323,103882.03458571847,67967.98920249811,65296.24048426634,67716.3309116758,259126.96976983186,128709.57001561762,86078.40074043283,103201.7592432212,TASK2
2026-05-26T09:52:09.658+00:00,948,66324,103881.56519908491,67969.33030716542,65295.77109763278,67704.86446677022,259121.135964529,128691.12982644199,86081.88761256785,103202.83212695505,TASK2
2026-05-26T09:52:09.658+00:00,948,66325,103875.46317284861,67962.6918390622,65299.25796976781,67709.15600170565,259109.40129868998,128721.70701285684,86088.32491497099,103203.9050106889,TASK2
2026-05-26T09:52:09.658+00:00,948,66326,103889.67888232219,67957.12625469283,65307.841039638646,67707.0772894713,259112.0835080246,128689.58755607456,86091.81178710601,103205.51433628969,TASK2
2026-05-26T09:52:09.658+00:00,948,66327,103886.52728635399,67962.4906733621,65302.27545526927,67734.4358246846,259117.9843685608,128599.26415673067,86093.15289177332,103207.92832469086,TASK2
2026-05-26T09:52:09.658+00:00,948,66328,103883.50980085252,67964.50233036307,65302.67778666947,67721.8294408118,259122.20884826288,128703.06565798112,86098.31614474251,103206.45310955681,TASK2
2026-05-26T09:52:09.658+00:00,948,66329,103883.30863515243,67978.71803983666,65304.28711227025,67724.7798710799,259123.2817319967,128681.13859667047,86098.58436567597,103204.64261825594,TASK2
2026-05-26T09:52:09.658+00:00,948,66330,103875.32906238188,67989.98331904213,65308.042205338745,67752.13840629319,259119.5936941616,128691.06277120861,86101.80301687753,103203.63678975544,TASK2
2026-05-26T09:52:09.658+00:00,948,66331,103883.91213225272,67949.01257145555,65304.35416750362,67725.65158911365,259117.2467609938,128714.39799241997,86097.57853717548,103206.31899909009,TASK2
2026-05-26T09:52:09.658+00:00,948,66332,103880.22409441759,67945.05631268697,65300.129687801564,67709.08894647227,259117.51498192726,128676.37767510148,86094.15872027382,103205.58139152305,TASK2
2026-05-26T09:52:09.658+00:00,948,66333,103878.41360311671,67956.05337095898,65303.080118069665,67742.34834222177,259117.31381622716,128692.73915204276,86101.93712734427,103205.1120048895,TASK2
2026-05-26T09:52:09.658+00:00,948,66334,103879.48648685057,67959.27202216054,65301.537847702246,67712.10643197375,259119.45958369487,128701.59044284707,86086.44736843674,103205.1120048895,TASK2
2026-05-26T09:52:09.658+00:00,948,66335,103880.55937058442,67963.2953361625,65303.415394236494,67701.71287080203,259120.26424649527,128711.78283831869,86079.27245846658,103202.76507172169,TASK2
2026-05-26T09:52:09.658+00:00,948,66336,103879.01710021701,67960.41196112776,65307.706929171916,67721.56121987833,259121.60535116258,128646.13576485345,86087.85552833742,103202.76507172169,TASK2
2026-05-26T09:52:09.658+00:00,948,66337,103875.59728331535,67955.65103955878,65306.1646588045,67712.7769843074,259122.41001396297,128702.19393994736,86079.07129276649,103197.19948735232,TASK2
2026-05-26T09:52:09.658+00:00,948,66338,103877.74305078306,67961.28367916151,65300.062632568195,67705.06563247032,259127.50621169878,128701.99277424726,86077.2608014656,103194.58433325104,TASK2
2026-05-26T09:52:09.658+00:00,948,66339,103874.59145481486,67958.66852506025,65299.861466868104,67710.4300511396,259133.9435141019,128689.98988747476,86081.82055733449,103193.57850475055,TASK2
2026-05-26T09:52:09.658+00:00,948,66340,103879.68765255067,67958.9367459937,65300.93435060196,67711.23471393998,259135.01639783577,128682.81497750462,86077.8642985659,103189.89046691543,TASK2
2026-05-26T09:52:09.658+00:00,948,66341,103875.73139378207,67958.19913842669,65297.24631276683,67710.76532730642,259135.28461876922,128680.4680443368,86072.83515606345,103191.49979251622,TASK2
2026-05-26T09:52:09.658+00:00,948,66342,103872.31157688041,67963.56355709596,65295.70404239941,67717.73907157648,259138.5032699708,128676.51178556822,86071.5611066295,103191.03040588264,TASK2
2026-05-26T09:52:09.658+00:00,948,66343,103871.5739693134,67961.75306579508,65297.58158893366,67722.83526931229,259144.13590957352,128662.63135226147,86077.19374623224,103192.1032896165,TASK2
2026-05-26T09:52:09.658+00:00,948,66344,103873.45151584763,67958.06502795995,65297.38042323356,67722.83526931229,259147.89100264202,128679.79749200314,86077.4619671657,103190.82924018255,TASK2
2026-05-26T09:52:09.658+00:00,948,66345,103869.49525707905,67958.60146982688,65295.301710999214,67708.41839413861,259150.3049910432,128675.30479136763,86081.2170602342,103192.97500765027,TASK2
2026-05-26T09:52:09.658+00:00,948,66346,103871.64102454676,67958.13208319331,65292.68655689795,67710.8323825398,259146.88517414153,128690.3251636416,86083.89926956884,103196.46187978529,TASK2
2026-05-26T09:52:09.658+00:00,948,66347,103873.25035014753,67956.5898128259,65294.564103432196,67714.05103374136,259143.46535723985,128663.83834646206,86084.43571143576,103199.68053098685,TASK2
2026-05-26T09:52:09.658+00:00,948,66348,103870.3669751128,67956.5898128259,65299.660301168005,67719.41545241063,259139.5090984713,128673.76252100022,86087.92258357079,103202.89918218841,TASK2
2026-05-26T09:52:09.658+00:00,948,66349,103873.85384724782,67954.77932152503,65298.65447266751,67726.12097574722,259137.16216530348,128696.8295212781,86089.53190917156,103205.58139152305,TASK2
2026-05-26T09:52:09.658+00:00,948,66350,103875.19495191515,67956.3886471258,65299.45913546791,67722.16471697863,259132.13302280102,128684.55841357213,86089.80013010504,103208.53182179116,TASK2
2026-05-26T09:52:09.658+00:00,948,66351,103874.99378621505,67952.43238835722,65299.45913546791,67713.64870234116,259126.2992174982,128679.79749200314,86091.94589757275,103209.06826365809,TASK2
2026-05-26T09:52:10.051+00:00,949,66352,103873.45151584763,67954.84637675839,65303.214228536395,67720.89066754468,259121.80651686268,128682.21148040432,86089.062522538,103205.91666768989,TASK2
2026-05-26T09:52:10.051+00:00,949,66353,103876.20078041563,67963.2953361625,65303.68361516996,67740.1355195207,259121.7394616293,128696.2260241778,86092.8176156065,103202.76507172169,TASK2
2026-05-26T09:52:10.051+00:00,949,66354,103875.19495191515,67960.68018206122,65304.756498903815,67737.52036541942,259121.5382959292,128687.97823047379,86103.54645294504,103203.30151358861,TASK2
2026-05-26T09:52:10.051+00:00,949,66355,103872.31157688041,67954.84637675839,65303.214228536395,67719.88483904419,259124.4887261973,128681.87620423749,86100.39485697685,103203.30151358861,TASK2
2026-05-26T09:52:10.051+00:00,949,66356,103866.74599251105,67955.65103955878,65300.062632568195,67717.80612680984,259129.0484820662,128687.50884384023,86099.92547034328,103202.83212695505,TASK2
2026-05-26T09:52:10.051+00:00,949,66357,103875.32906238188,67957.26036515956,65307.03637683825,67735.77692935191,259136.82688913663,128665.04534066265,86105.28988901257,103200.21697285378,TASK2
2026-05-26T09:52:10.051+00:00,949,66358,103870.83636174636,67969.33030716542,65302.8118971362,67761.52613896443,259144.87351714054,128604.49446493322,86099.72430464318,103194.91960941788,TASK2
2026-05-26T09:52:10.051+00:00,949,66359,103872.98212921407,67963.4965018626,65303.080118069665,67784.32491830883,259151.04259861022,128489.2265187772,86090.6718481388,103188.28114131464,TASK2
2026-05-26T09:52:10.051+00:00,949,66360,103860.97924244158,67934.59569628187,65297.24631276683,67720.55539137784,259152.38370327753,128723.11517275753,86075.18208923127,103183.25199881221,TASK2
2026-05-26T09:52:10.051+00:00,949,66361,103864.73433551006,67956.5898128259,65293.290053998244,67701.84698126875,259153.18836607793,128747.52327770273,86080.814728834,103186.47065001377,TASK2
2026-05-26T09:52:10.051+00:00,949,66362,103867.4165448447,67956.85803375936,65295.70404239941,67728.1326327482,259156.94345914642,128615.08919180503,86095.03043830757,103196.39482455193,TASK2
2026-05-26T09:52:10.056+00:00,949,66363,103865.33783261036,67949.68312378922,65298.38625173405,67738.05680728635,259162.03965688223,128643.25238981872,86093.75638887362,103195.92543791835,TASK2
2026-05-26T09:52:10.056+00:00,949,66364,103860.84513197484,67962.55772859546,65299.995577334834,67741.81190035485,259169.01340115228,128757.7827284077,86082.02172303459,103190.62807448246,TASK2
2026-05-26T09:52:10.056+00:00,949,66365,103865.94132971065,67954.84637675839,65294.698213898926,67750.93141209261,259175.18248262195,128704.20559694833,86093.0187813066,103202.42979555485,TASK2
2026-05-26T09:52:10.056+00:00,949,66366,103867.28243437796,67955.38281862531,65296.843981366634,67734.6369903847,259175.71892448887,128612.27287200367,86088.79430160455,103206.98955142374,TASK2
2026-05-26T09:52:10.056+00:00,949,66367,103858.7664197405,67973.89006303431,65297.38042323356,67779.16166533966,259175.2495378553,128610.19415976932,86093.08583653996,103203.83795545554,TASK2
2026-05-26T09:52:10.056+00:00,949,66368,103867.6177105448,67949.54901332248,65301.94017910244,67792.03627014592,259179.8092937242,128595.50906366219,86104.6193366789,103205.98372292325,TASK2
2026-05-26T09:52:10.056+00:00,949,66369,103868.95881521211,67927.89017294529,65296.374594733075,67690.44759159654,259185.7101542604,128573.58200235153,86093.95755457372,103205.98372292325,TASK2
2026-05-26T09:52:10.056+00:00,949,66370,103861.5156843085,67935.66858001573,65292.95477783141,67696.08023119929,259181.7538954918,128643.05122411862,86100.12663604338,103206.52016479017,TASK2
2026-05-26T09:52:10.056+00:00,949,66371,103864.4661145766,67932.785204981,65293.222998764875,67709.49127787247,259173.23788085434,128660.48558479376,86084.63687713585,103200.68635948734,TASK2
2026-05-26T09:52:10.056+00:00,949,66372,103859.70519300763,67952.90177499078,65292.75361213131,67764.74479016599,259167.4040755515,128668.26399186421,86091.87884233937,103194.8525541845,TASK2
2026-05-26T09:52:10.056+00:00,949,66373,103872.04335594695,67952.43238835722,65301.87312386908,67744.15883352266,259168.47695928536,128588.4012089254,86105.82633087948,103199.41231005339,TASK2
2026-05-26T09:52:10.056+00:00,949,66374,103862.45445757563,67934.52864104851,65301.67195816898,67738.05680728635,259171.42738955346,128585.78605482413,86094.09166504045,103192.77384195017,TASK2
2026-05-26T09:52:10.056+00:00,949,66375,103861.98507094206,67939.35661785086,65296.642815666535,67726.32214144732,259174.64604075503,128673.76252100022,86092.54939467303,103188.28114131464,TASK2
2026-05-26T09:52:10.056+00:00,949,66376,103864.93550121016,67945.79392025399,65297.71569940039,67762.26374653145,259177.32825008966,128677.78583500217,86100.32780174348,103191.49979251622,TASK2
2026-05-26T09:52:10.056+00:00,949,66377,103866.27660587749,67941.30121961847,65299.32502500117,67719.41545241063,259179.74223849084,128686.10068393954,86104.35111574543,103198.2053158528,TASK2
2026-05-26T09:52:10.056+00:00,949,66378,103862.85678897581,67941.30121961847,65298.319196500684,67715.19097270857,259186.4477618274,128672.75669249972,86099.32197324299,103194.78549895114,TASK2
2026-05-26T09:52:10.056+00:00,949,66379,103857.5594255399,67940.56361205145,65296.24048426634,67743.0859497888,259193.9579479644,128688.04528570715,86112.4647989827,103196.12660361845,TASK2
2026-05-26T09:52:10.056+00:00,949,66380,103870.09875417934,67949.41490285574,65302.00723433581,67757.6369354292,259199.2553114003,128668.12988139747,86119.10326708594,103204.77672872266,TASK2
2026-05-26T09:52:10.056+00:00,949,66381,103873.85384724782,67933.92514394822,65304.15300180352,67744.29294398938,259200.32819513418,128619.91716860738,86111.92835711579,103206.92249619037,TASK2
2026-05-26T09:52:10.056+00:00,949,66382,103869.09292567885,67925.40912931075,65305.22588553737,67733.09472001728,259201.6692998015,128630.37778501246,86096.43859820826,103195.72427221827,TASK2
2026-05-26T09:52:10.056+00:00,949,66383,103863.79556224294,67942.57526905242,65306.566990204694,67748.11509229123,259204.08328820264,128620.52066570768,86101.80301687753,103197.06537688558,TASK2
2026-05-26T09:52:10.056+00:00,949,66384,103864.0637831764,67955.18165292521,65307.63987393855,67792.63976724622,259208.64304407153,128590.01053452618,86115.21406355071,103206.18488862335,TASK2
2026-05-26T09:52:10.056+00:00,949,66385,103871.03752744646,67922.79397520948,65308.176315805475,67742.01306605495,259215.6167883416,128661.89374469445,86098.65142090933,103205.44728105632,TASK2
2026-05-26T09:52:10.056+00:00,949,66386,103868.95881521211,67940.22833588462,65307.43870823845,67740.47079568752,259219.64010234355,128592.49157816071,86104.01583957861,103203.9050106889,TASK2
2026-05-26T09:52:10.056+00:00,949,66387,103865.53899831045,67937.61318178335,65310.120917573084,67757.36871449574,259224.73630007936,128639.69846245032,86098.7184761427,103196.99832165222,TASK2
2026-05-26T09:52:10.056+00:00,949,66388,103866.88010297777,67930.17005087972,65316.82644090968,67751.80313012637,259229.83249781516,128665.98411392976,86105.42399947929,103198.607647253,TASK2
2026-05-26T09:52:10.056+00:00,949,66389,103871.43985884666,67936.87557421632,65303.75067040332,67753.41245572714,259238.14734675255,128645.12993635297,86101.19951977723,103197.87003968598,TASK2
2026-05-26T09:52:10.056+00:00,949,66390,103871.43985884666,67937.14379514978,65302.20840003591,67757.97221159603,259242.43888168797,128605.50029343371,86096.70681914172,103195.52310651817,TASK2
2026-05-26T09:52:10.056+00:00,949,66391,103866.94715821114,67941.16710915173,65303.281283769764,67775.9430141381,259243.24354448836,128595.37495319545,86100.19369127676,103191.56684774958,TASK2
2026-05-26T09:52:10.056+00:00,949,66392,103862.45445757563,67930.77354798002,65303.81772563669,67773.86430190376,259248.60796315764,128626.22036054377,86106.63099367988,103195.59016175153,TASK2
2026-05-26T09:52:10.056+00:00,949,66393,103866.47777157759,67939.89305971778,65306.231714037865,67781.91092990767,259259.33680049618,128646.87337242048,86108.24031928067,103198.27237108618,TASK2
2026-05-26T09:52:10.056+00:00,949,66394,103872.91507398071,67947.40324585477,65312.40079550753,67797.1995231151,259267.3834285001,128553.86776374195,86121.9195868873,103198.8088129531,TASK2
2026-05-26T09:52:10.056+00:00,949,66395,103869.22703614557,67920.11176587484,65311.6631879405,67743.8906125892,259269.26097503433,128640.77134618418,86110.45314198174,103199.61347575349,TASK2
2026-05-26T09:52:10.056+00:00,949,66396,103870.03169894597,67921.72109147563,65310.38913850655,67725.1822024801,259269.05980933423,128670.27564886518,86100.59602267694,103196.19365885183,TASK2
2026-05-26T09:52:10.056+00:00,949,66397,103868.48942857856,67930.57238227992,65311.73024317387,67742.61656315524,259267.51753896681,128659.34564582654,86105.96044134622,103198.07120538608,TASK2
2026-05-26T09:52:10.056+00:00,949,66398,103869.29409137895,67929.56655377944,65314.14423157504,67754.6865051611,259275.0277251038,128624.0075378427,86114.54351121705,103205.84961245651,TASK2
2026-05-26T09:52:10.056+00:00,949,66399,103866.41071634421,67930.90765844675,65311.52907747377,67761.39202849769,259283.07435310772,128625.61686344349,86119.90792988634,103212.01869392618,TASK2
2026-05-26T09:52:10.056+00:00,949,66400,103868.28826287846,67934.66275151525,65312.0655193407,67762.733133165,259290.31631831123,128628.03085184465,86124.73590668867,103216.57844979507,TASK2
2026-05-26T09:52:10.056+00:00,949,66401,103867.55065531144,67933.92514394822,65312.60196120763,67760.11797906374,259292.73030671242,128587.06010425808,86117.0245548516,103213.1586328934,TASK2
2026-05-26T09:52:10.056+00:00,949,66402,103867.8188762449,67932.3828735808,65316.89349614304,67790.96338641207,259288.50582701035,128569.42457788283,86121.04786885355,103207.8612694575,TASK2
2026-05-26T09:52:10.056+00:00,949,66403,103863.32617560939,67941.50238531857,65319.30748454422,67766.0858948333,259283.4766845079,128646.40398578692,86119.7738194196,103204.97789442276,TASK2
2026-05-26T09:52:10.056+00:00,949,66404,103865.74016401055,67918.50244027405,65320.916810145,67741.20840325455,259280.3250885397,128666.78877673016,86105.62516517939,103201.82629845456,TASK2
2026-05-26T09:52:10.056+00:00,949,66405,103860.7110215081,67916.15550710625,65306.499934971325,67745.23171725651,259279.31926003922,128657.73632022575,86101.40068547733,103205.3131705896,TASK2
2026-05-26T09:52:10.056+00:00,949,66406,103861.24746337504,67931.71232124715,65304.421222736986,67763.20251979858,259280.66036470653,128628.29907277811,86109.98375534818,103209.87292645847,TASK2
2026-05-26T09:52:10.056+00:00,949,66407,103864.4661145766,67921.85520194235,65305.7623274043,67764.00718259896,259284.41545777503,128573.64905758489,86121.24903455365,103220.06532193009,TASK2
2026-05-26T09:52:10.056+00:00,949,66408,103859.70519300763,67928.56072527895,65305.7623274043,67775.27246180444,259291.38920204507,128632.38944201345,86115.68345018428,103220.60176379702,TASK2
2026-05-26T09:52:10.056+00:00,949,66409,103868.55648381192,67920.84937344186,65308.98097860587,67739.1296910202,259295.68073698052,128654.92000042439,86116.48811298466,103218.79127249614,TASK2
2026-05-26T09:52:10.056+00:00,949,66410,103865.13666691026,67921.11759437533,65307.17048730499,67736.51453691894,259295.47957128042,128587.66360135838,86121.58431072047,103220.13237716346,TASK2
2026-05-26T09:52:10.056+00:00,949,66411,103862.58856804235,67935.06508291545,65307.57281870518,67757.97221159603,259294.80901894675,128644.12410785248,86115.34817401745,103213.62801952696,TASK2
2026-05-26T09:52:10.056+00:00,949,66412,103869.02587044549,67944.72103652013,65306.835211138154,67759.58153719682,259294.80901894675,128671.75086399923,86111.66013618233,103208.0624351576,TASK2
2026-05-26T09:52:10.056+00:00,949,66413,103870.90341697972,67948.74435052209,65310.59030420665,67767.62816520073,259297.22300734793,128526.97861516221,86126.14406658936,103213.42685382687,TASK2
2026-05-26T09:52:10.056+00:00,949,66414,103867.48360007806,67929.2312776126,65309.58447570616,67763.67190643214,259299.10055388216,128592.42452292735,86113.33651701648,103206.52016479017,TASK2
2026-05-26T09:52:10.056+00:00,949,66415,103868.55648381192,67942.37410335233,65307.77398440528,67782.17915084113,259295.94895791396,128627.02502334416,86101.60185117743,103199.07703388656,TASK2
2026-05-26T09:52:10.056+00:00,949,66416,103865.40488784372,67941.90471671877,65305.9634931044,67748.45036845807,259286.36005954264,128636.68097694886,86100.32780174348,103197.26654258568,TASK2
2026-05-26T09:52:10.056+00:00,949,66417,103863.59439654285,67936.07091141593,65306.231714037865,67737.52036541942,259278.91692863902,128638.55852348311,86101.6689064108,103194.6513884844,TASK2
2026-05-26T09:52:10.056+00:00,949,66418,103864.13083840976,67937.68023701671,65306.03054833777,67739.1296910202,259278.71576293893,128642.31361655159,86093.15289177332,103192.3044553166,TASK2
2026-05-26T09:52:10.056+00:00,949,66419,103864.13083840976,67943.84931848638,65307.90809487201,67768.63399370121,259276.10060883765,128629.23784604525,86099.32197324299,103194.71844371778,TASK2
2026-05-26T09:52:10.056+00:00,949,66420,103867.34948961134,67944.65398128677,65308.98097860587,67772.92552863664,259268.1210360671,128560.37212137844,86103.34528724494,103201.42396705436,TASK2
2026-05-26T09:52:10.056+00:00,949,66421,103859.90635870773,67947.60441155487,65306.365824504595,67739.46496718704,259257.19103302847,128637.08330834906,86101.53479594407,103205.71550198979,TASK2
2026-05-26T09:52:10.056+00:00,949,66422,103859.16875114069,67951.62772555683,65310.120917573084,67758.24043252949,259250.55256492525,128607.37783996796,86110.65430768183,103204.7096734893,TASK2
2026-05-26T09:52:10.056+00:00,949,66423,103862.1191814088,67941.77060625203,65305.3599960041,67755.35705749477,259248.74207362437,128611.40115396991,86113.068296083,103206.31899909009,TASK2
2026-05-26T09:52:10.056+00:00,949,66424,103861.38157384176,67944.72103652013,65303.0130628363,67749.79147312538,259248.74207362437,128605.83556960053,86103.47939771168,103208.19654562432,TASK2
2026-05-26T09:52:10.056+00:00,949,66425,103856.35243133933,67950.35367612288,65302.27545526927,67780.63688047371,259248.2726869908,128580.68985708832,86115.01289785061,103215.70673176131,TASK2
2026-05-26T09:52:10.056+00:00,949,66426,103861.44862907514,67953.0358854575,65302.54367620274,67763.80601689887,259246.4621956899,128630.57895071256,86115.01289785061,103218.38894109594,TASK2
2026-05-26T09:52:10.056+00:00,949,66427,103863.8626174763,67950.15251042278,65305.22588553737,67763.3366302653,259241.9694950544,128676.71295126832,86113.4706274832,103218.65716202941,TASK2
2026-05-26T09:52:10.056+00:00,949,66428,103859.63813777425,67942.97760045262,65304.756498903815,67740.3366852208,259235.8674688181,128609.18833126883,86117.2257205517,103225.89912723293,TASK2
2026-05-26T09:52:10.056+00:00,949,66429,103862.85678897581,67947.80557725497,65305.5611617042,67750.52908069242,259234.05697751723,128630.109564079,86115.41522925081,103227.50845283372,TASK2
2026-05-26T09:52:10.056+00:00,949,66430,103866.88010297777,67948.34201912189,65304.823554137176,67752.94306909358,259230.90538154903,128633.8646571475,86123.99829912165,103234.2139761703,TASK2
2026-05-26T09:52:10.056+00:00,949,66431,103866.41071634421,67968.45858913167,65306.432879737964,67774.40074377069,259228.02200651428,128633.39527051392,86126.14406658936,103232.93992673635,TASK2
2026-05-26T09:52:10.056+00:00,949,66432,103865.13666691026,67961.55190009499,65306.566990204694,67788.41528754417,259230.10071874864,128639.02791011667,86127.82044742351,103232.60465056953,TASK2
2026-05-26T09:52:10.056+00:00,949,66433,103864.39905934324,67947.13502492131,65307.10343207162,67776.1441798382,259229.89955304854,128552.45960384126,86135.33063356049,103236.09152270455,TASK2
2026-05-26T09:52:10.056+00:00,949,66434,103860.7110215081,67930.8406032134,65307.37165300508,67761.99552559799,259229.16194548152,128613.07753480405,86131.91081665883,103234.54925233714,TASK2
2026-05-26T09:52:10.056+00:00,949,66435,103860.97924244158,67952.29827789048,65306.90226637152,67788.81761894436,259225.47390764637,128519.26726332513,86128.2227788237,103228.98366796775,TASK2
2026-05-26T09:52:10.056+00:00,949,66436,103851.39034407024,67949.14668192228,65301.87312386908,67792.57271201284,259219.10366047663,128560.841508012,86110.58725244847,103219.12654866297,TASK2
2026-05-26T09:52:10.056+00:00,949,66437,103854.87721620528,67937.68023701671,65305.3599960041,67749.72441789202,259217.29316917574,128640.77134618418,86104.48522621217,103222.61342079799,TASK2
2026-05-26T09:52:10.056+00:00,949,66438,103853.87138770478,67944.92220222023,65308.310426272204,67755.62527842823,259220.78004131076,128651.23196258926,86113.8729588834,103226.10029293303,TASK2
2026-05-26T09:52:10.056+00:00,949,66439,103853.40200107123,67947.3361906214,65299.794411634735,67758.84392962979,259226.14445998005,128641.91128515141,86119.50559848614,103225.63090629947,TASK2
2026-05-26T09:52:10.056+00:00,949,66440,103853.20083537113,67951.35950462335,65303.549504703224,67761.25791803095,259225.40685241303,128613.54692143762,86119.50559848614,103222.47931033127,TASK2
2026-05-26T09:52:10.056+00:00,949,66441,103852.73144873757,67940.42950158472,65301.739013402344,67753.54656619388,259223.59636111214,128609.85888360249,86115.01289785061,103219.59593529653,TASK2
2026-05-26T09:52:10.056+00:00,949,66442,103850.38451556976,67950.0854551894,65300.73318490186,67770.4444850021,259224.40102391253,128549.57622880653,86108.64265068085,103216.98078119526,TASK2
2026-05-26T09:52:10.056+00:00,949,66443,103845.62359400078,67953.30410639098,65302.07428956917,67814.96915995707,259231.10654724913,128554.67242654234,86115.34817401745,103215.97495269477,TASK2
2026-05-26T09:52:10.056+00:00,949,66444,103849.11046613581,67968.05625773147,65306.90226637152,67765.68356343311,259240.76250085383,128631.1153925795,86110.319031515,103219.99826669673,TASK2
2026-05-26T09:52:10.056+00:00,949,66445,103846.22709110107,67924.1350798768,65300.80024013522,67742.14717652167,259243.17648925498,128592.02219152715,86104.75344714563,103217.38311259546,TASK2
2026-05-26T09:52:10.056+00:00,949,66446,103844.14837886672,67930.57238227992,65297.91686510049,67747.51159519095,259242.97532355489,128561.2438394122,86118.16449381881,103217.38311259546,TASK2
2026-05-26T09:52:10.056+00:00,949,66447,103842.06966663238,67931.10882414685,65295.83815286615,67743.82355735582,259242.7741578548,128617.03379357264,86113.94001411676,103223.01575219819,TASK2
2026-05-26T09:52:10.056+00:00,949,66448,103848.50696903552,67953.10294069088,65299.861466868104,67764.74479016599,259245.45636718944,128587.32832519154,86111.59308094895,103222.00992369771,TASK2
2026-05-26T09:52:10.056+00:00,949,66449,103846.16003586771,67949.41490285574,65302.54367620274,67788.08001137733,259248.94323932446,128525.70456572826,86124.46768575521,103218.59010679604,TASK2
2026-05-26T09:52:10.056+00:00,949,66450,103843.54488176643,67935.534469549,65302.54367620274,67762.9342988651,259249.2114602579,128648.54975325463,86110.319031515,103211.14697589242,TASK2
2026-05-26T09:52:10.056+00:00,949,66451,103845.42242830068,67939.55778355096,65302.8118971362,67775.5406827379,259250.55256492525,128629.03668034515,86117.29277578506,103216.5113945617,TASK2
2026-05-26T09:52:10.366+00:00,950,66452,103846.49531203453,67938.82017598393,65304.421222736986,67784.12375260874,259255.9169835945,128551.05144394058,86126.14406658936,103224.82624349908,TASK2
2026-05-26T09:52:10.368+00:00,950,66453,103842.53905326595,67934.05925441495,65301.537847702246,67773.46197050356,259259.40385572953,128619.44778197382,86120.57848222,103225.362685366,TASK2
2026-05-26T09:52:10.368+00:00,950,66454,103841.265003832,67938.35078935037,65299.72735640137,67763.06840933184,259260.74496039687,128641.17367758437,86114.20823505023,103221.40642659742,TASK2
2026-05-26T09:52:10.368+00:00,950,66455,103840.52739626497,67934.12630964832,65301.33668200215,67761.52613896443,259261.8178441307,128594.83851132852,86114.20823505023,103222.21108939781,TASK2
2026-05-26T09:52:10.368+00:00,950,66456,103842.13672186575,67936.5402980495,65298.98974883434,67769.8409879018,259265.84115813268,128516.31683305703,86116.6222234514,103227.57550806708,TASK2
2026-05-26T09:52:10.368+00:00,950,66457,103839.45451253111,67933.45575731466,65297.1122023001,67782.91675840816,259268.3222017672,128546.22346713823,86119.10326708594,103233.87870000348,TASK2
2026-05-26T09:52:10.368+00:00,950,66458,103839.99095439805,67938.82017598393,65298.453306967414,67764.74479016599,259269.39508550108,128613.81514237108,86127.68633695677,103238.43845587235,TASK2
2026-05-26T09:52:10.368+00:00,950,66459,103844.0142684,67951.69478079019,65299.794411634735,67776.27829030492,259274.4912832369,128579.01347625417,86119.9749851197,103237.1644064384,TASK2
2026-05-26T09:52:10.368+00:00,950,66460,103845.08715213386,67934.32747534841,65302.47662096937,67818.65719779218,259281.46502750693,128475.81547210402,86121.31608978701,103234.8174732706,TASK2
2026-05-26T09:52:10.368+00:00,950,66461,103840.8626724318,67913.74151870508,65302.00723433581,67768.29871753439,259283.8790159081,128527.85033319597,86113.068296083,103232.73876103625,TASK2
2026-05-26T09:52:10.368+00:00,950,66462,103833.9559833951,67942.70937951916,65296.44164996644,67751.19963302607,259288.70699271045,128712.38633541898,86102.94295584476,103227.97783946728,TASK2
2026-05-26T09:52:10.368+00:00,950,66463,103837.17463459667,67966.58104259742,65297.78275463376,67788.21412184407,259294.87607418012,128651.56723875609,86111.79424664905,103230.12360693498,TASK2
2026-05-26T09:52:10.368+00:00,950,66464,103837.97929739706,67919.17299260772,65301.537847702246,67766.2870605334,259297.55828351475,128538.71328100126,86129.2286073242,103241.65710707392,TASK2
2026-05-26T09:52:10.368+00:00,950,66465,103841.19794859862,67919.44121354118,65301.537847702246,67745.16466202315,259298.63116724862,128579.48286288773,86113.20240654974,103237.43262737186,TASK2
2026-05-26T09:52:10.368+00:00,950,66466,103834.02303862847,67933.65692301476,65295.70404239941,67754.28417376091,259302.3862603171,128600.13587476443,86112.73301991618,103233.20814766981,TASK2
2026-05-26T09:52:10.368+00:00,950,66467,103831.94432639414,67931.04176891349,65293.088888298145,67761.25791803095,259305.3366905852,128583.57323212305,86112.73301991618,103228.44722610083,TASK2
2026-05-26T09:52:10.368+00:00,950,66468,103837.84518693032,67938.82017598393,65295.23465576585,67768.23166230101,259308.2871208533,128539.38383333491,86114.61056645043,103221.00409519722,TASK2
2026-05-26T09:52:10.368+00:00,950,66469,103830.67027696018,67942.03882718549,65295.033490065754,67778.96049963956,259308.0859551532,128554.40420560888,86121.31608978701,103220.53470856366,TASK2
2026-05-26T09:52:10.368+00:00,950,66470,103829.39622752623,67939.69189401768,65292.41833596448,67773.3949152702,259305.20258011846,128623.06876457558,86104.21700527871,103218.18777539585,TASK2
2026-05-26T09:52:10.368+00:00,950,66471,103829.39622752623,67945.86097548736,65292.41833596448,67774.73601993751,259299.63699574908,128611.60231967,86105.28988901257,103215.84084222803,TASK2
2026-05-26T09:52:10.368+00:00,950,66472,103831.27377406046,67939.22250738413,65297.51453370029,67781.17332234063,259292.73030671242,128552.3925486079,86114.94584261725,103218.25483062922,TASK2
2026-05-26T09:52:10.368+00:00,950,66473,103829.73150369305,67924.80563221045,65300.46496396839,67788.41528754417,259285.01895487533,128552.66076954135,86128.08866835697,103221.74170276424,TASK2
2026-05-26T09:52:10.368+00:00,950,66474,103833.48659676155,67929.90182994626,65295.70404239941,67770.243319302,259282.1355798406,128598.52654916365,86116.35400251794,103221.74170276424,TASK2
2026-05-26T09:52:10.368+00:00,950,66475,103834.29125956194,67932.85226021436,65296.776926133265,67768.16460706765,259274.15600707004,128586.25544145769,86113.73884841666,103221.74170276424,TASK2
2026-05-26T09:52:10.368+00:00,950,66476,103830.33500079335,67940.63066728481,65292.55244643122,67773.26080480346,259264.8353296322,128569.96101974977,86119.63970895286,103224.96035396581,TASK2
2026-05-26T09:52:10.368+00:00,950,66477,103829.59739322632,67931.84643171387,65290.205513263405,67793.6455957467,259256.85575686162,128464.61724813191,86131.44143002527,103231.93409823586,TASK2
2026-05-26T09:52:10.368+00:00,950,66478,103821.88604138924,67940.42950158472,65287.8585800956,67796.86424694827,259251.0219515588,128572.97850525123,86112.19657804925,103226.10029293303,TASK2
2026-05-26T09:52:10.368+00:00,950,66479,103825.9093553912,67936.20502188266,65292.41833596448,67785.66602297616,259248.94323932446,128642.17950608487,86113.80590365003,103223.48513883176,TASK2
2026-05-26T09:52:10.368+00:00,950,66480,103833.15132059471,67939.42367308422,65294.564103432196,67802.2957208509,259250.0161230583,128539.78616473511,86121.58431072047,103224.82624349908,TASK2
2026-05-26T09:52:10.368+00:00,950,66481,103835.29708806242,67915.0826233724,65298.05097556722,67774.46779900405,259252.4301114595,128442.75724205462,86119.50559848614,103224.82624349908,TASK2
2026-05-26T09:52:10.368+00:00,950,66482,103824.9035268907,67922.32458857591,65294.3629377321,67740.47079568752,259252.4301114595,128617.36906973948,86104.28406051207,103222.47931033127,TASK2
2026-05-26T09:52:10.368+00:00,950,66483,103826.78107342495,67926.0796816444,65293.357109231605,67754.95472609457,259255.64876266106,128587.12715949144,86112.8671303829,103225.42974059937,TASK2
2026-05-26T09:52:10.368+00:00,950,66484,103828.256288559,67929.4324433127,65296.10637379961,67768.90221463468,259262.0190098308,128596.31372646257,86112.93418561628,103226.77084526668,TASK2
2026-05-26T09:52:10.368+00:00,950,66485,103822.9589251231,67960.00962972756,65292.95477783141,67789.55522651138,259259.672076663,128595.57611889555,86113.73884841666,103222.81458649809,TASK2
2026-05-26T09:52:10.368+00:00,950,66486,103823.49536699003,67943.17876615272,65293.7594406318,67794.91964518065,259253.30182949326,128599.5994328975,86128.49099975717,103224.69213303234,TASK2
2026-05-26T09:52:10.368+00:00,950,66487,103835.5653089959,67915.0826233724,65300.73318490186,67774.60190947077,259252.5642219262,128552.45960384126,86113.00124084964,103223.14986266493,TASK2
2026-05-26T09:52:10.368+00:00,950,66488,103834.29125956194,67931.71232124715,65302.87895236957,67783.18497934162,259256.3193149947,128559.70156904479,86112.53185421608,103220.53470856366,TASK2
2026-05-26T09:52:10.368+00:00,950,66489,103832.48076826106,67918.36832980733,65307.43870823845,67766.8905576337,259253.1677190265,128548.50334507268,86127.55222649005,103225.89912723293,TASK2
2026-05-26T09:52:10.368+00:00,950,66490,103828.256288559,67928.29250434549,65298.38625173405,67777.35117403878,259249.47968119138,128537.57334203403,86115.817560651,103228.3131156341,TASK2
2026-05-26T09:52:10.368+00:00,950,66491,103832.0113816275,67920.04471064148,65293.89355109853,67793.98087191353,259250.28434399178,128434.64355881733,86115.817560651,103229.92244123488,TASK2
2026-05-26T09:52:10.368+00:00,950,66492,103827.25046005851,67918.2342193406,65295.77109763278,67771.24914780249,259247.40096895705,128578.9464210208,86113.73884841666,103227.84372900054,TASK2
2026-05-26T09:52:10.368+00:00,950,66493,103832.07843686086,67919.5753240079,65300.59907443512,67764.3424587658,259250.35139922515,128597.72188636326,86112.73301991618,103231.0623802021,TASK2
2026-05-26T09:52:10.368+00:00,950,66494,103831.6090502273,67919.37415830782,65301.403737235516,67772.12086583624,259253.30182949326,128579.81813905457,86107.70387741373,103230.05655170162,TASK2
2026-05-26T09:52:10.368+00:00,950,66495,103828.18923332564,67922.86103044284,65300.129687801564,67774.80307517087,259253.10066379316,128567.81525228206,86106.69804891324,103229.05072320113,TASK2
2026-05-26T09:52:10.368+00:00,950,66496,103828.99389612603,67919.17299260772,65299.928522101465,67777.48528450551,259249.412625958,128547.22929563872,86110.18492104828,103223.75335976522,TASK2
2026-05-26T09:52:10.368+00:00,950,66497,103827.98806762554,67924.00096941006,65301.537847702246,67803.77093598495,259245.99280905636,128493.65216417935,86115.54933971755,103224.55802256562,TASK2
2026-05-26T09:52:10.368+00:00,950,66498,103827.51868099198,67907.97476863561,65304.756498903815,67789.35406081128,259245.99280905636,128490.50056821115,86105.96044134622,103218.45599632931,TASK2
2026-05-26T09:52:10.368+00:00,950,66499,103828.59156472584,67925.67735024421,65296.24048426634,67793.6455957467,259246.79747185676,128533.41591756535,86109.7155344147,103217.71838876228,TASK2
2026-05-26T09:52:10.368+00:00,950,66500,103833.9559833951,67892.75323066155,65295.23465576585,67765.81767389984,259249.2114602579,128462.94086729776,86114.54351121705,103226.30145863313,TASK2
2026-05-26T09:52:10.368+00:00,950,66501,103823.83064315685,67886.65120442524,65297.1122023001,67740.67196138762,259247.13274802358,128585.2496129572,86098.5173104426,103214.29857186062,TASK2
2026-05-26T09:52:10.368+00:00,950,66502,103831.87727116076,67897.64826269726,65302.47662096937,67747.91392659115,259245.59047765617,128582.36623792247,86108.44148498075,103214.83501372756,TASK2
2026-05-26T09:52:10.368+00:00,950,66503,103822.5565937229,67897.1788760637,65288.86440859609,67761.86141513125,259242.97532355489,128527.71622272924,86109.78258964808,103214.63384802746,TASK2
2026-05-26T09:52:10.368+00:00,950,66504,103821.81898615588,67897.71531793062,65289.937292329945,67791.36571781227,259236.0686345182,128477.35774247143,86111.12369431539,103215.43851082785,TASK2
2026-05-26T09:52:10.368+00:00,950,66505,103827.18340482515,67888.93108235969,65291.81483886419,67780.43571477362,259226.74795708034,128469.91461156782,86114.34234551695,103216.24317362823,TASK2
2026-05-26T09:52:10.368+00:00,950,66506,103823.49536699003,67878.26930025451,65284.63992889404,67730.0772345158,259220.64593084404,128540.72493800223,86091.61062140591,103205.3131705896,TASK2
2026-05-26T09:52:10.368+00:00,950,66507,103821.14843382222,67892.75323066155,65284.63992889404,67735.70987411855,259215.08034647466,128578.27586868714,86094.29283074055,103202.96623742179,TASK2
2026-05-26T09:52:10.368+00:00,950,66508,103821.9530966226,67890.94273936066,65290.27256849677,67762.80018839838,259206.5643318372,128547.22929563872,86116.28694728456,103211.0128654257,TASK2
2026-05-26T09:52:10.368+00:00,950,66509,103829.73150369305,67886.18181779169,65293.491219698335,67771.11503733575,259202.87629400208,128444.83595428897,86122.99247062116,103215.03617942765,TASK2
2026-05-26T09:52:10.368+00:00,950,66510,103828.18923332564,67868.27807048298,65293.491219698335,67744.89644108967,259196.5060468323,128482.9233268408,86106.16160704632,103207.32482759056,TASK2
2026-05-26T09:52:10.368+00:00,950,66511,103825.03763735744,67877.39758222074,65292.48539119785,67740.40374045416,259190.404020596,128554.27009514214,86083.1616620018,103201.22280135426,TASK2
2026-05-26T09:52:10.368+00:00,950,66512,103820.00849485498,67904.48789650058,65295.43582146595,67824.08867169483,259186.4477618274,128548.16806890584,86106.22866227968,103202.29568508813,TASK2
2026-05-26T09:52:10.368+00:00,950,66513,103831.005553127,67878.00107932104,65298.38625173405,67783.38614504172,259185.7101542604,128368.79531965201,86113.20240654974,103215.43851082785,TASK2
2026-05-26T09:52:10.368+00:00,950,66514,103821.9530966226,67889.26635852651,65292.55244643122,67737.05097878586,259183.63144202606,128531.60542626446,86096.63976390836,103210.14114739194,TASK2
2026-05-26T09:52:10.368+00:00,950,66515,103824.16591932368,67868.00984954952,65297.04514706673,67741.81190035485,259178.6022995236,128521.4800860262,86114.47645598369,103220.93703996386,TASK2
2026-05-26T09:52:10.368+00:00,950,66516,103824.7023611906,67869.35095421683,65293.62533016507,67750.66319115915,259172.76849422077,128564.3954353804,86108.37442974739,103225.22857489927,TASK2
2026-05-26T09:52:10.368+00:00,950,66517,103824.23297455705,67883.83488462388,65292.88772259805,67780.43571477362,259169.61689825257,128438.13043095237,86109.7155344147,103222.88164173147,TASK2
2026-05-26T09:52:10.368+00:00,950,66518,103822.69070418963,67879.87862585529,65297.71569940039,67771.65147920269,259169.61689825257,128506.25854805214,86096.90798484182,103213.82918522706,TASK2
2026-05-26T09:52:10.368+00:00,950,66519,103822.22131755608,67873.77659961898,65296.97809183336,67740.3366852208,259170.42156105296,128550.24678114019,86099.05375230953,103215.43851082785,TASK2
2026-05-26T09:52:10.368+00:00,950,66520,103822.02015185598,67873.77659961898,65292.75361213131,67760.72147616404,259174.17665412146,128518.66376622484,86100.39485697685,103213.89624046042,TASK2
2026-05-26T09:52:10.368+00:00,950,66521,103819.94143962162,67875.11770428631,65293.5582749317,67759.71564766354,259169.9521744194,128510.41597252083,86118.36565951891,103222.47931033127,TASK2
2026-05-26T09:52:10.368+00:00,950,66522,103820.47788148855,67874.91653858621,65296.776926133265,67759.24626102998,259169.9521744194,128472.39565520236,86109.31320301452,103217.98660969576,TASK2
2026-05-26T09:52:10.368+00:00,950,66523,103814.10763431877,67877.59874792084,65294.161772032,67763.00135409848,259171.02505815326,128558.76279577766,86093.823444107,103206.78838572364,TASK2
2026-05-26T09:52:10.368+00:00,950,66524,103815.71695991956,67882.15850378973,65295.77109763278,67772.65730770316,259167.33702031814,128528.52088552962,86099.72430464318,103206.05077815661,TASK2
2026-05-26T09:52:10.368+00:00,950,66525,103824.56825072388,67871.76494261801,65292.35128073112,67764.67773493263,259163.11254061607,128488.08657980998,86100.26074651012,103201.28985658764,TASK2
2026-05-26T09:52:10.368+00:00,950,66526,103813.1018058183,67871.02733505098,65286.24925449482,67770.84681640229,259158.61983998056,128453.0166927596,86096.30448774152,103194.6513884844,TASK2
2026-05-26T09:52:10.661+00:00,951,66527,103808.34088424931,67862.77954134697,65281.22011199238,67761.79435989789,259162.91137491597,128494.85915837994,86081.88761256785,103189.62224598197,TASK2
2026-05-26T09:52:10.661+00:00,951,66528,103809.1455470497,67866.80285534893,65283.09765852662,67761.79435989789,259168.54401451873,128535.36051933296,86072.56693512999,103182.44733601181,TASK2
2026-05-26T09:52:10.661+00:00,951,66529,103808.40793948268,67867.60751814932,65284.17054226047,67774.13252283722,259169.08045638565,128499.21774854872,86081.68644686775,103183.25199881221,TASK2
2026-05-26T09:52:10.661+00:00,951,66530,103803.37879698024,67870.55794841742,65278.33673695764,67737.1850892526,259167.26996508476,128436.52110535158,86083.02755153508,103185.66598721338,TASK2
2026-05-26T09:52:10.661+00:00,951,66531,103792.98523580852,67867.6745733827,65271.698268854416,67733.49705141748,259164.11836911656,128449.12748922438,86058.68650182325,103168.83512363854,TASK2
2026-05-26T09:52:10.661+00:00,951,66532,103791.17474450763,67844.67462833818,65266.13268448504,67714.52042037492,259162.03965688223,128491.23817577818,86038.63698704683,103151.73603913022,TASK2
2026-05-26T09:52:10.661+00:00,951,66533,103789.36425320676,67869.88739608377,65263.24930945031,67748.85269985827,259161.83849118213,128418.88557897635,86031.19385614322,103138.66026862386,TASK2
2026-05-26T09:52:10.661+00:00,951,66534,103784.06688977085,67826.77088102947,65257.9519460144,67732.55827815035,259156.0046858793,128390.2529943291,86028.31048110848,103135.2404517222,TASK2
2026-05-26T09:52:10.661+00:00,951,66535,103774.74621233299,67835.62217183376,65248.36304764308,67684.07734442678,259149.902659643,128489.49473971066,85999.14145459431,103117.60492534697,TASK2
2026-05-26T09:52:10.661+00:00,951,66536,103773.9415495326,67834.61634333328,65237.164823670966,67679.11525715771,259143.8006334067,128426.93220698026,85988.21145155566,103103.65743680685,TASK2
2026-05-26T09:52:10.661+00:00,951,66537,103763.54798836088,67842.66297133721,65224.08905316461,67694.94029223207,259137.16216530348,128372.01397085357,85988.47967248912,103096.4825268367,TASK2
2026-05-26T09:52:10.661+00:00,951,66538,103760.12817145922,67843.19941320413,65213.69549199289,67722.0306065119,259135.3516740026,128427.2674831471,85975.40390198278,103082.06565166303,TASK2
2026-05-26T09:52:10.661+00:00,951,66539,103758.31768015833,67833.34229389933,65211.080337891624,67693.93446373158,259133.27296176823,128371.00814235308,85968.49721294608,103073.2814160921,TASK2
2026-05-26T09:52:10.661+00:00,951,66540,103744.97368871851,67827.24026766303,65203.90542792147,67683.54090255986,259127.17093553196,128304.82462702092,85971.44764321418,103064.49718052115,TASK2
2026-05-26T09:52:10.661+00:00,951,66541,103740.74920901646,67829.6542560642,65195.12119235053,67661.88206218267,259115.4362696929,128433.30245415002,85943.61972136733,103049.00742161363,TASK2
2026-05-26T09:52:10.661+00:00,951,66542,103735.72006651403,67841.18775620316,65187.94628238038,67660.60801274872,259108.79780158968,128408.69318350473,85935.64014859678,103040.49140697616,TASK2
2026-05-26T09:52:10.661+00:00,951,66543,103736.79295024788,67836.42683463416,65183.45358174486,67657.72463771398,259107.25553122227,128416.47159057518,85935.64014859678,103037.87625287489,TASK2
2026-05-26T09:52:10.661+00:00,951,66544,103730.15448214464,67841.79125330344,65180.83842764359,67657.72463771398,259108.32841495614,128420.22668364366,85938.85879979834,103037.6750871748,TASK2
2026-05-26T09:52:10.661+00:00,951,66545,103726.19822337606,67851.7154278416,65177.6868316754,67677.03654492336,259109.66951962345,128402.05471540151,85937.58475036439,103030.50017720464,TASK2
2026-05-26T09:52:10.661+00:00,951,66546,103730.22153737802,67850.17315747419,65175.071677574124,67700.10354520124,259109.9377405569,128371.00814235308,85943.75383183405,103033.45060747274,TASK2
2026-05-26T09:52:10.661+00:00,951,66547,103727.33816234328,67845.68045683867,65172.45652347285,67655.64592547964,259115.8386010931,128370.27053478606,85936.84714279737,103033.45060747274,TASK2
2026-05-26T09:52:10.661+00:00,951,66548,103724.99122917547,67854.79996857644,65179.43026774291,67663.42433255009,259119.86191509507,128322.86248479635,85937.92002653122,103032.98122083918,TASK2
2026-05-26T09:52:10.661+00:00,951,66549,103711.64723773565,67857.48217791106,65165.013392569235,67689.70998402953,259125.76277563127,128433.10128844992,85921.35738388984,103021.24655500014,TASK2
2026-05-26T09:52:10.661+00:00,951,66550,103716.74343547146,67857.0127912775,65165.013392569235,67671.53801578736,259129.51786869977,128426.4628203467,85916.86468325433,103016.2174124977,TASK2
2026-05-26T09:52:10.661+00:00,951,66551,103711.71429296902,67862.64543088025,65163.73934313528,67654.97537314598,259133.80940363518,128439.87386701988,85917.66934605471,103017.29029623156,TASK2
2026-05-26T09:52:10.661+00:00,951,66552,103709.63558073467,67866.40052394875,65162.73351463479,67666.77709421839,259134.3458455021,128422.5065615781,85925.9841949921,103022.38649396737,TASK2
2026-05-26T09:52:10.661+00:00,951,66553,103710.70846446854,67879.00690782153,65162.5323489347,67682.33390835927,259137.83271763712,128396.28796533204,85923.63726182427,103022.92293583429,TASK2
2026-05-26T09:52:10.661+00:00,951,66554,103707.28864756686,67903.68323370018,65161.52652043421,67735.44165318509,259140.2467060383,128398.43373279975,85937.04830849747,103023.99581956814,TASK2
2026-05-26T09:52:10.661+00:00,951,66555,103715.33527557077,67862.98070704707,65167.96382283734,67689.37470786269,259137.36333100358,128337.61463613686,85947.24070396909,103035.52931970709,TASK2
2026-05-26T09:52:10.661+00:00,951,66556,103705.74637719945,67873.1731025187,65167.96382283734,67682.73623975947,259136.0892815696,128355.58543867891,85938.18824746468,103035.32815400699,TASK2
2026-05-26T09:52:10.661+00:00,951,66557,103700.717234697,67893.55789346194,65164.54400593568,67692.66041429763,259138.5032699708,128470.38399820137,85936.64597709727,103034.3223255065,TASK2
2026-05-26T09:52:10.661+00:00,951,66558,103711.98251390249,67904.82317266741,65172.85885487305,67690.31348112982,259144.94057237392,128490.76878914461,85948.9841400366,103041.56429071001,TASK2
2026-05-26T09:52:10.661+00:00,951,66559,103709.63558073467,67905.6278354678,65180.100820076565,67693.80035326484,259147.3545607751,128460.52687889659,85966.15027977827,103054.97533738319,TASK2
2026-05-26T09:52:10.661+00:00,951,66560,103708.89797316765,67918.50244027405,65179.36321250954,67721.42710941161,259148.1592235755,128432.9671779832,85979.293105518,103067.04527938906,TASK2
2026-05-26T09:52:10.661+00:00,951,66561,103714.1282813702,67927.89017294529,65181.17370381042,67738.05680728635,259151.44493001042,128464.55019289855,85979.62838168483,103074.95779692625,TASK2
2026-05-26T09:52:10.661+00:00,951,66562,103712.04956913585,67943.98342895311,65181.441924743885,67745.03055155641,259146.68400844143,128524.36346106094,85984.45635848716,103082.46798306322,TASK2
2026-05-26T09:52:10.661+00:00,951,66563,103722.51018554093,67931.71232124715,65194.584750483606,67756.29583076188,259146.68400844143,128430.28496864856,86002.69538196271,103095.8790297364,TASK2
2026-05-26T09:52:10.661+00:00,951,66564,103718.55392677235,67926.14673687777,65198.87628541903,67765.14712156619,259146.21462180786,128473.73675986967,86009.13268436583,103101.7798902726,TASK2
2026-05-26T09:52:10.661+00:00,951,66565,103718.35276107225,67943.31287661944,65203.70426222137,67749.92558359212,259141.99014210582,128564.12721444693,86013.96066116818,103113.58161134501,TASK2
2026-05-26T09:52:10.661+00:00,951,66566,103718.62098200571,67956.72392329264,65206.65469248947,67772.72436293654,259145.47701424084,128543.00481593667,86025.49416130711,103127.52909988513,TASK2
2026-05-26T09:52:10.661+00:00,951,66567,103723.44895880806,67966.91631876426,65209.33690182411,67797.13246788173,259150.57321197665,128501.49762648316,86051.5115918531,103145.76812336066,TASK2
2026-05-26T09:52:10.661+00:00,951,66568,103730.15448214464,67970.67141183275,65215.23776236031,67808.93418895412,259162.91137491597,128499.95535611575,86041.92269348177,103150.596100163,TASK2
2026-05-26T09:52:10.661+00:00,951,66569,103733.64135427968,67947.13502492131,65225.966599698855,67788.34823231079,259175.78597972225,128493.58510894599,86053.72441455416,103160.25205376769,TASK2
