timestamp_utc,packet_index,sample_index,AF3,AF4,F3,F4,FC5,FC6,O2,O1,label
2026-04-28T10:56:52.014+00:00,1191,85177,150884.13219262747,106794.04220510031,552487.4466642675,201474.556502647,144016.5363569899,158716.92105733405,546635.6035036568,553175.5004138352,TASK2
2026-04-28T10:56:52.014+00:00,1191,85178,150884.93685542786,106795.38330976764,552477.8577658961,201476.1658282478,144012.31187728787,158716.71989163395,546624.9417215516,553165.9115154638,TASK2
2026-04-28T10:56:52.014+00:00,1191,85179,150887.88728569596,106797.52907723535,552465.3184372566,201475.1599997473,144005.1369673177,158712.22719099844,546613.4752766461,553153.103965891,TASK2
2026-04-28T10:56:52.014+00:00,1191,85180,150890.03305316367,106796.79146966831,552452.7791086172,201471.2037409787,144001.1807085491,158704.78406009483,546605.227482942,553140.5646372514,TASK2
2026-04-28T10:56:52.014+00:00,1191,85181,150889.29544559665,106795.2491993009,552444.2630939798,201470.1979124782,144000.979542849,158695.9998245239,546599.9301195061,553132.3168435475,TASK2
2026-04-28T10:56:52.014+00:00,1191,85182,150886.68029149537,106791.29294053231,552436.2835212093,201469.9967467781,143998.09616781428,158690.16601922107,546595.7056398041,553124.6054917104,TASK2
2026-04-28T10:56:52.014+00:00,1191,85183,150885.67446299488,106789.7506701649,552428.3039484387,201468.4544764107,143994.67635091263,158687.81908605326,546593.0904857029,553116.6259189398,TASK2
2026-04-28T10:56:52.014+00:00,1191,85184,150884.6686344944,106787.94017886402,552416.5692825996,201465.83932230945,143988.57432467633,158685.7403738189,546584.0380291984,553104.8912531008,TASK2
2026-04-28T10:56:52.014+00:00,1191,85185,150880.44415479235,106783.17925729504,552405.3710586275,201460.81017980698,143985.42272870813,158683.66166158457,546571.498700559,553093.6930291287,TASK2
2026-04-28T10:56:52.014+00:00,1191,85186,150871.65991922142,106779.75944039338,552441.8491055786,201452.56238610297,143973.6880628691,158680.51006561637,546558.1547091191,553138.2177040837,TASK2
2026-04-28T10:56:52.014+00:00,1191,85187,150863.4121255174,106776.33962349172,552592.5892701852,201447.26502266707,143960.8805132962,158672.79871377928,546544.2742758124,553288.1532058899,TASK2
2026-04-28T10:56:52.014+00:00,1191,85188,150856.7736574142,106773.45624845698,552638.4550498074,201444.38164763234,143940.83099851978,158664.81914100875,546530.9302843726,553327.045241242,TASK2
2026-04-28T10:56:52.014+00:00,1191,85189,150851.47629397828,106768.42710595454,552623.7699537004,201438.27962139604,143927.48700707997,158653.62091703663,546513.5629789309,553312.0919242015,TASK2
2026-04-28T10:56:52.014+00:00,1191,85190,150845.64248867542,106759.91109131706,552608.5484157263,201428.1542811578,143917.8981087086,158638.9358209295,546494.0499060213,553296.3339443605,TASK2
2026-04-28T10:56:52.014+00:00,1191,85191,150836.59003217105,106750.85863481267,552596.5455289538,201415.61495251837,143906.16344286958,158626.932934157,546476.6826005796,553284.5992785215,TASK2
2026-04-28T10:56:52.014+00:00,1191,85192,150829.9515640678,106742.87906204212,552586.688409649,201403.07562387895,143898.18387009902,158619.48980325338,546464.6797138071,553275.0103801502,TASK2
2026-04-28T10:56:52.014+00:00,1191,85193,150827.6046309,106737.84991953967,552574.6855228764,201393.75494644107,143893.1547275966,158614.99710261787,546450.7992805004,553263.0074933777,TASK2
2026-04-28T10:56:52.014+00:00,1191,85194,150826.86702333298,106734.43010263801,552561.3415314367,201387.11647833785,143883.83405015874,158605.40820424655,546430.2133238569,553249.6635019379,TASK2
2026-04-28T10:56:52.014+00:00,1191,85195,150822.106101764,106730.47384386942,552547.9975399969,201381.28267303502,143872.63582618663,158594.74642214135,546409.0909253467,553236.319510498,TASK2
2026-04-28T10:56:52.014+00:00,1191,85196,150814.93119179385,106727.32224790123,552537.8721997585,201374.10776306485,143861.43760221452,158587.30329123774,546397.6244804412,553225.9259493263,TASK2
2026-04-28T10:56:52.014+00:00,1191,85197,150810.43849115833,106725.51175660035,552528.8197432542,201365.32352749392,143856.944901579,158580.1283812676,546389.6449076706,553216.8734928219,TASK2
2026-04-28T10:56:52.014+00:00,1191,85198,150810.97493302525,106724.77414903333,552518.6944030159,201357.20984425663,143853.5921399107,158570.00304102933,546378.5807941653,553206.5469868835,TASK2
2026-04-28T10:56:52.014+00:00,1191,85199,150810.77376732515,106720.01322746434,552504.0093069088,201347.8891668188,143847.75833460788,158560.414142658,546361.2134887235,553191.5936698429,TASK2
2026-04-28T10:56:52.014+00:00,1191,85200,150808.96327602427,106715.52052682883,552489.5924317351,201339.10493124786,143845.947843307,158553.77567455478,546342.7732995478,553177.4450156027,TASK2
2026-04-28T10:56:52.014+00:00,1191,85201,150802.32480792105,106712.63715179409,552497.1026178721,201329.51603287653,143843.60091013918,158548.47831111887,546330.2339709084,553189.5149576085,TASK2
2026-04-28T10:56:52.014+00:00,1191,85202,150797.02744448514,106708.94911395897,552545.9188277625,201323.41400664023,143841.52219790482,158542.37628488257,546322.7908400048,553236.7218418982,TASK2
2026-04-28T10:56:52.014+00:00,1191,85203,150796.02161598465,106707.67506452501,552549.4056998976,201318.92130600472,143840.24814847088,158542.64450581605,546315.3477091012,553237.2582837652,TASK2
2026-04-28T10:56:52.014+00:00,1191,85204,150795.5522293511,106707.94328545847,552535.2570456573,201315.76971003652,143839.51054090387,158546.667819818,546304.4177060626,553222.8414085915,TASK2
2026-04-28T10:56:52.014+00:00,1191,85205,150792.13241244943,106705.59635229067,552520.3037286167,201312.34989313484,143840.85164557118,158548.27714541878,546296.9745751589,553208.1563124843,TASK2
2026-04-28T10:56:52.014+00:00,1191,85206,150789.2490374147,106702.71297725593,552508.5690627777,201308.39363436625,143844.60673863968,158548.54536635225,546289.7996651888,553196.1534257118,TASK2
2026-04-28T10:56:52.014+00:00,1191,85207,150786.63388331342,106700.90248595506,552497.6390597391,201303.36449186382,143848.36183170814,158550.69113381996,546286.1116273536,553185.2234226732,TASK2
2026-04-28T10:56:52.014+00:00,1191,85208,150784.82339201253,106701.43892782198,552488.3183823011,201299.94467496214,143849.16649450854,158553.1051222211,546283.7646941858,553176.1709661687,TASK2
2026-04-28T10:56:52.014+00:00,1191,85209,150785.62805481293,106701.70714875545,552475.7790536617,201298.40240459473,143852.11692477664,158554.17800595498,546277.6626679496,553163.3634165959,TASK2
2026-04-28T10:56:52.014+00:00,1191,85210,150786.43271761332,106701.50598305535,552463.7761668892,201296.3236923604,143855.3355759782,158554.17800595498,546274.2428510479,553151.09230889,TASK2
2026-04-28T10:56:52.014+00:00,1191,85211,150784.8904472459,106700.76837548832,552453.9190475844,201290.75810799102,143852.72042187693,158557.12843622308,546272.7005806804,553141.2351895851,TASK2
2026-04-28T10:56:52.014+00:00,1191,85212,150783.61639781197,106699.49432605437,552445.6712538805,201286.53362828898,143852.2510352434,158564.3704014266,546270.0854265792,553133.5238377481,TASK2
2026-04-28T10:56:52.014+00:00,1191,85213,150784.42106061234,106699.02493942081,552434.7412508418,201286.80184922242,143855.2014655115,158570.53948289627,546268.0067143448,553122.5938347094,TASK2
2026-04-28T10:56:52.014+00:00,1191,85214,150786.2986071466,106700.09782315466,552421.6654803355,201288.94761669013,143857.07901204572,158573.75813409782,546258.14959504,553109.2498432696,TASK2
2026-04-28T10:56:52.014+00:00,1191,85215,150787.9079327474,106698.82377372071,552409.3943726295,201290.020500424,143857.3472329792,158573.55696839772,546248.0242548018,553096.7105146302,TASK2
2026-04-28T10:56:52.014+00:00,1191,85216,150787.7067670473,106695.94039868598,552405.4381138609,201288.4782300566,143860.56588418075,158571.4782561634,546243.5315541662,553093.022476795,TASK2
2026-04-28T10:56:52.014+00:00,1191,85217,150787.5056013472,106694.66634925202,552404.1640644269,201288.008843423,143859.02361381333,158571.4782561634,546244.3362169666,553091.7484273611,TASK2
2026-04-28T10:56:52.014+00:00,1191,85218,150788.31026414759,106695.73923298588,552396.1844916564,201290.4228318242,143860.9011603476,158570.20420672942,546243.0621675327,553084.037075524,TASK2
2026-04-28T10:56:52.014+00:00,1191,85219,150789.91958974834,106696.81211671974,552384.1816048839,201290.9592736911,143864.92447434954,158567.3208316947,546234.0097110283,553071.7659678181,TASK2
2026-04-28T10:56:52.014+00:00,1191,85220,150789.71842404825,106696.61095101964,552372.1787181114,201287.53945678947,143862.8457621152,158565.24211946037,546223.8843707901,553059.4948601121,TASK2
2026-04-28T10:56:52.014+00:00,1191,85221,150786.83504901352,106696.40978531954,552363.9309244074,201283.04675615393,143863.91864584904,158563.69984909293,546212.686146818,553050.9788454747,TASK2
2026-04-28T10:56:52.014+00:00,1191,85222,150786.63388331342,106694.86751495212,552357.0242353707,201279.3587183188,143866.06441331675,158564.50451189332,546207.925225249,553044.0721564379,TASK2
2026-04-28T10:56:52.014+00:00,1191,85223,150788.71259554778,106697.4826690534,552348.4411654999,201279.69399448566,143868.47840171793,158567.45494216142,546206.9864519818,553035.8243627339,TASK2
2026-04-28T10:56:52.014+00:00,1191,85224,150790.32192114854,106699.09199465417,552335.9018368605,201279.22460785208,143869.81950638525,158568.25960496182,546199.5433210782,553023.016813161,TASK2
2026-04-28T10:56:52.014+00:00,1191,85225,150791.93124674933,106699.09199465417,552324.9718338217,201276.87767468428,143874.91570412106,158565.64445086053,546187.0039924388,553012.6232519893,TASK2
2026-04-28T10:56:52.014+00:00,1191,85226,150790.92541824884,106698.35438708715,552317.7969238516,201275.33540431687,143871.76410815286,158564.10218049312,546179.2926406018,553005.1801210857,TASK2
2026-04-28T10:56:52.014+00:00,1191,85227,150788.57848508103,106698.89082895407,552311.9631185489,201276.14006711726,143865.66208191655,158567.85727356162,546178.8232539681,552999.3463157829,TASK2
2026-04-28T10:56:52.014+00:00,1191,85228,150789.91958974834,106698.89082895407,552304.2517667117,201275.93890141716,143866.1985237835,158574.0263550313,546180.9690214358,552991.6349639457,TASK2
2026-04-28T10:56:52.014+00:00,1191,85229,150791.7971362826,106698.15322138705,552294.3946474069,201274.39663104975,143868.07607031774,158578.3178899667,546180.2314138688,552981.5096237075,TASK2
2026-04-28T10:56:52.014+00:00,1191,85230,150792.06535721605,106696.8791719531,552285.3421909026,201270.44037228115,143872.90404712007,158578.58611090019,546175.4704922999,552972.4571672031,TASK2
2026-04-28T10:56:52.014+00:00,1191,85231,150789.4502031148,106691.58180851719,552344.0825753311,201264.6065669783,143875.31803552125,158580.7318783679,546171.7824544647,553040.585284303,TASK2
2026-04-28T10:56:52.014+00:00,1191,85232,150787.6397118139,106685.74800321435,552536.665205558,201263.60073847783,143871.89821861958,158578.3849452001,546168.0944166296,553230.4857051952,TASK2
2026-04-28T10:56:52.014+00:00,1191,85233,150787.9079327474,106681.79174444577,552577.7030083779,201263.39957277774,143872.43466048653,158574.16046549802,546163.8699369276,553265.3544265454,TASK2
2026-04-28T10:56:52.014+00:00,1191,85234,150787.43854611382,106681.59057874567,552562.4814704038,201263.66779371118,143874.84864888768,158569.93598579598,546155.0857013566,553250.1328885714,TASK2
2026-04-28T10:56:52.014+00:00,1191,85235,150783.7505082787,106681.38941304557,552548.8692580306,201263.66779371118,143875.38509075463,158564.10218049312,546146.5696867191,553236.2524552647,TASK2
2026-04-28T10:56:52.014+00:00,1191,85236,150779.7942495101,106679.31070081123,552538.2074759254,201263.93601464466,143866.86907611715,158558.2683751903,546144.7591954183,553225.322452226,TASK2
2026-04-28T10:56:52.014+00:00,1191,85237,150777.4473163423,106677.76843044382,552530.4961240883,201263.73484894456,143865.86324761665,158553.77567455478,546144.2898087847,553217.8793213224,TASK2
2026-04-28T10:56:52.014+00:00,1191,85238,150776.4414878418,106676.76260194332,552520.1025629166,201264.8077326784,143866.39968948357,158552.23340418737,546140.3335500162,553207.7539810841,TASK2
2026-04-28T10:56:52.014+00:00,1191,85239,150775.97210120823,106676.29321530976,552507.2950133437,201266.68527921266,143866.93613135052,158552.23340418737,546135.0361865802,553194.6782105778,TASK2
2026-04-28T10:56:52.014+00:00,1191,85240,150774.16160990737,106675.01916587581,552493.414580037,201267.48994201305,143865.66208191655,158553.03806698776,546130.5434859447,553180.797777271,TASK2
2026-04-28T10:56:52.014+00:00,1191,85241,150772.082897673,106677.16493334352,552483.8256816657,201268.5628257469,143865.192695283,158552.30045942075,546128.4647737104,553171.2088788997,TASK2
2026-04-28T10:56:52.014+00:00,1191,85242,150771.07706917252,106679.31070081123,552476.6507716955,201269.09926761384,143866.26557901685,158550.22174718638,546127.1907242764,553163.4975270627,TASK2
2026-04-28T10:56:52.014+00:00,1191,85243,150771.345290106,106681.45646827894,552465.1843267899,201272.0496978819,143867.60668368416,158553.1721774545,546119.4793724393,553152.5675240239,TASK2
2026-04-28T10:56:52.014+00:00,1191,85244,150773.4910575737,106683.60223574664,552451.5721144166,201274.19546534965,143865.7961923833,158556.92727052298,546108.5493694007,553138.9553116506,TASK2
2026-04-28T10:56:52.014+00:00,1191,85245,150773.2898918736,106683.40107004654,552438.4963439103,201269.43454378066,143866.33263425023,158559.0730379907,546098.155808229,553126.1477620777,TASK2
2026-04-28T10:56:52.014+00:00,1191,85246,150769.60185403848,106682.12702061259,552430.5167711397,201262.79607567744,143867.941959851,158559.0730379907,546087.7622470573,553118.1681893072,TASK2
2026-04-28T10:56:52.014+00:00,1191,85247,150766.9866999372,106682.66346247953,552426.0240705042,201261.79024717695,143871.16061105256,158556.72610482288,546077.1004649521,553113.4072677383,TASK2
2026-04-28T10:56:52.014+00:00,1191,85248,150767.52314180415,106684.2727880803,552417.7762768002,201263.39957277774,143868.27723601784,158555.7202763224,546071.2666596492,553105.4276949677,TASK2
2026-04-28T10:56:52.014+00:00,1191,85249,150769.9371302053,106685.88211368109,552405.7733900277,201262.6619652107,143870.95944535246,158557.32960192318,546066.7739590137,553093.1565872618,TASK2
2026-04-28T10:56:52.014+00:00,1191,85250,150771.8817319729,106687.75966021534,552392.9658404548,201261.4549710101,143873.57459945374,158560.34708742463,546063.8235287456,553080.4831481556,TASK2
2026-04-28T10:56:52.014+00:00,1191,85251,150771.1441244059,106687.55849451524,552383.645163017,201258.83981690885,143876.52502972184,158559.87770079108,546060.403711844,553071.4306916512,TASK2
2026-04-28T10:56:52.014+00:00,1191,85252,150771.68056627281,106689.16782011602,552377.0066949137,201259.1080378423,143876.32386402175,158559.87770079108,546054.5699065411,553064.5240026145,TASK2
2026-04-28T10:56:52.014+00:00,1191,85253,150773.2898918736,106691.31358758373,552369.5635640101,201260.98558437655,143877.93318962253,158563.09635199263,546041.7623569682,553056.8126507774,TASK2
2026-04-28T10:56:52.014+00:00,1191,85254,150775.16743840787,106692.9229131845,552358.6335609715,201259.17509307567,143879.81073615677,158562.89518629256,546023.5903887261,553046.1508686723,TASK2
2026-04-28T10:56:52.014+00:00,1191,85255,150774.96627270777,106691.91708468403,552348.2399997998,201254.68239244015,143883.2976082918,158558.93892752397,546005.9548623508,553036.025528434,TASK2
2026-04-28T10:56:52.014+00:00,1191,85256,150773.15578140688,106689.5701515162,552341.3333107631,201250.18969180464,143882.02355885785,158554.44622688845,545994.7566383787,553029.3870603308,TASK2
2026-04-28T10:56:52.014+00:00,1191,85257,150771.07706917252,106687.75966021534,552336.3041682607,201248.91564237067,143878.87196288965,158551.02640998678,545986.2406237413,553024.0896968949,TASK2
2026-04-28T10:56:52.014+00:00,1191,85258,150770.07124067206,106690.1736486165,552329.1292582905,201249.72030517107,143875.98858785492,158550.0205814863,545978.5292719041,553016.9147869247,TASK2
2026-04-28T10:56:52.014+00:00,1191,85259,150769.87007497196,106691.78297421729,552318.7356971188,201248.71447667058,143875.78742215483,158550.5570233532,545970.0132572667,553006.2530048195,TASK2
2026-04-28T10:56:52.014+00:00,1191,85260,150768.32780460452,106691.58180851719,552308.6103568805,201244.22177603506,143874.51337272086,158551.09346522015,545963.10656823,552996.3958855148,TASK2
2026-04-28T10:56:52.014+00:00,1191,85261,150765.17620863635,106689.23487534939,552316.3887639509,201235.7057613976,143872.16643955305,158552.43456988747,545962.368960663,553008.1976065872,TASK2
2026-04-28T10:56:52.014+00:00,1191,85262,150762.2928336016,106687.69260498197,552367.350741309,201230.14017702822,143869.81950638525,158554.04389548826,545962.368960663,553057.8184792779,TASK2
2026-04-28T10:56:52.014+00:00,1191,85263,150762.2928336016,106687.96082591543,552377.2749158472,201227.79324386042,143868.81367788475,158550.62407858658,545962.368960663,553064.5240026145,TASK2
2026-04-28T10:56:52.014+00:00,1191,85264,150762.0916679015,106685.34567181417,552366.3449128085,201224.9098688257,143869.35011975167,158547.47248261838,545959.4855856282,553053.3257786424,TASK2
2026-04-28T10:56:52.014+00:00,1191,85265,150761.085839401,106682.99873864635,552355.6831307034,201219.61250538978,143867.80784938426,158549.35002915264,545957.1386524604,553042.6639965372,TASK2
2026-04-28T10:56:52.014+00:00,1191,85266,150756.05669689857,106682.52935201279,552348.2399997998,201213.51047915348,143869.14895405158,158548.88064251907,545952.9141727583,553035.2208656336,TASK2
2026-04-28T10:56:52.014+00:00,1191,85267,150752.36865906345,106682.52935201279,552342.4061944969,201209.82244131836,143870.49005871892,158544.92438375048,545950.8354605241,553029.9235021977,TASK2
2026-04-28T10:56:52.014+00:00,1191,85268,150749.21706309525,106685.47978228089,552335.2312845268,201210.35888318528,143864.38803248262,158543.1138924496,545943.6605505539,553022.4803712941,TASK2
2026-04-28T10:56:52.014+00:00,1191,85269,150749.21706309525,106685.27861658079,552324.5695024215,201209.8894965517,143865.192695283,158538.88941274755,545934.339873116,553011.8185891889,TASK2
2026-04-28T10:56:52.014+00:00,1191,85270,150749.75350496217,106682.12702061259,552313.9077203164,201206.7379005835,143862.30932024826,158532.25094464433,545928.2378468798,553001.4250280171,TASK2
2026-04-28T10:56:52.014+00:00,1191,85271,150746.87012992744,106680.31652931172,552306.4645894128,201202.245199948,143859.42594521353,158527.75824400882,545922.4040415769,552993.9818971136,TASK2
2026-04-28T10:56:52.014+00:00,1191,85272,150743.9867548927,106680.11536361162,552300.6307841099,201199.0936039798,143858.42011671304,158528.02646494226,545917.9113409413,552988.4163127443,TASK2
2026-04-28T10:56:52.014+00:00,1191,85273,150743.9867548927,106680.65180547854,552291.5783276055,201198.35599641278,143857.41428821255,158532.85444174462,545915.0279659067,552979.0956353063,TASK2
2026-04-28T10:56:52.014+00:00,1191,85274,150745.05963862655,106680.18241884498,552280.6483245669,201198.62421734625,143856.944901579,158536.6095348131,545903.2933000675,552968.4338532011,TASK2
2026-04-28T10:56:52.014+00:00,1191,85275,150745.05963862655,106678.10370661064,552272.1323099295,201198.62421734625,143856.47551494543,158537.14597668004,545887.5353202266,552959.9178385637,TASK2
2026-04-28T10:56:52.014+00:00,1191,85276,150742.17626359183,106676.29321530976,552269.7853767617,201196.81372604537,143857.81661961274,158540.09640694814,545881.7015149237,552958.3755681963,TASK2
2026-04-28T10:56:52.328+00:00,1192,85277,150739.82933042402,106676.09204960967,552269.7853767617,201195.5396766114,143861.8399336147,158544.11972095008,545881.5003492236,552957.9061815627,TASK2
2026-04-28T10:56:52.328+00:00,1192,85278,150738.55528099005,106676.09204960967,552262.8786877249,201196.88078127874,143853.86036084415,158547.6065930851,545878.8851951224,552950.7312715926,TASK2
2026-04-28T10:56:52.328+00:00,1192,85279,150737.54945248956,106675.62266297611,552253.5580102871,201198.22188594606,143853.65919514405,158544.99143898385,545868.7598548841,552940.6059313543,TASK2
2026-04-28T10:56:52.328+00:00,1192,85280,150736.00718212215,106674.08039260868,552244.5055537827,201197.75249931248,143852.6533666436,158540.23051741486,545853.2700959767,552931.5534748499,TASK2
2026-04-28T10:56:52.328+00:00,1192,85281,150733.593193721,106673.0745641082,552239.2752455801,201200.43470864714,143851.17815150952,158535.60370631263,545840.3954911703,552926.3231666473,TASK2
2026-04-28T10:56:52.328+00:00,1192,85282,150730.70981868624,106672.06873560771,552233.7096612108,201200.23354294704,143849.36766020863,158532.72033127787,545835.6345696014,552921.2940241449,TASK2
2026-04-28T10:56:52.328+00:00,1192,85283,150730.97803961972,106671.06290710722,552228.1440768414,201198.15483071268,143851.2452067429,158532.98855221135,545835.4334039013,552915.1919979086,TASK2
2026-04-28T10:56:52.328+00:00,1192,85284,150732.31914428703,106670.59352047366,552220.1645040709,201195.27145567795,143851.0440410428,158530.90983997702,545828.2584939311,552906.9442042046,TASK2
2026-04-28T10:56:52.328+00:00,1192,85285,150731.84975765346,106670.39235477356,552211.9167103668,201191.04697597589,143851.58048290972,158527.75824400882,545820.547142094,552898.9646314341,TASK2
2026-04-28T10:56:52.328+00:00,1192,85286,150730.57570821952,106669.11830533961,552205.2782422636,201185.74961253998,143853.72625037743,158527.02063644177,545817.3955461258,552892.0579423974,TASK2
2026-04-28T10:56:52.328+00:00,1192,85287,150730.10632158595,106669.38652627307,552200.2490997611,201182.32979563833,143848.697107875,158528.89818297603,545817.6637670593,552887.028799895,TASK2
2026-04-28T10:56:52.328+00:00,1192,85288,150730.91098438634,106670.7276309404,552194.4152944584,201182.32979563833,143849.5017706754,158531.31217137718,545817.1943804257,552881.1949945921,TASK2
2026-04-28T10:56:52.328+00:00,1192,85289,150732.7885309206,106670.99585187386,552186.4357216877,201182.32979563833,143848.22772124142,158528.96523820938,545811.3605751229,552873.2154218216,TASK2
2026-04-28T10:56:52.328+00:00,1192,85290,150733.593193721,106670.25824430682,552177.6514861168,201178.37353686974,143846.95367180748,158524.74075850734,545805.2585488866,552864.9676281175,TASK2
2026-04-28T10:56:52.328+00:00,1192,85291,150729.10049308545,106667.3748692721,552231.0274518761,201168.78463849842,143844.60673863968,158522.39382533953,545801.0340691846,552927.731326548,TASK2
2026-04-28T10:56:52.328+00:00,1192,85292,150724.87601338341,106662.07750583619,552430.3156054396,201162.9508331956,143839.30937520377,158517.90112470402,545802.9116157189,553125.9465963778,TASK2
2026-04-28T10:56:52.328+00:00,1192,85293,150722.79730114908,106656.51192146681,552492.0064201363,201161.40856282815,143836.426000169,158512.6037612681,545807.2031506542,553179.3225621369,TASK2
2026-04-28T10:56:52.328+00:00,1192,85294,150719.64570518088,106653.62854643208,552479.4670914969,201157.1840831261,143830.3239739327,158507.84283969912,545805.1244384199,553166.2467916306,TASK2
2026-04-28T10:56:52.328+00:00,1192,85295,150716.76233014613,106651.28161326428,552466.3913209905,201148.9362894221,143825.29483143028,158498.2539413278,545801.1681796513,553153.1710211242,TASK2
2026-04-28T10:56:52.328+00:00,1192,85296,150713.61073417793,106647.86179636262,552458.1435272865,201144.44358878658,143822.14323546208,158488.396822023,545799.8941302174,553144.6550064868,TASK2
2026-04-28T10:56:52.328+00:00,1192,85297,150709.9226963428,106646.31952599519,552451.7732801167,201143.4377602861,143820.3327441612,158483.9041213875,545803.112781419,553138.0165383836,TASK2
2026-04-28T10:56:52.328+00:00,1192,85298,150709.9226963428,106647.39240972904,552443.5254864127,201145.04708588688,143817.181148193,158481.82540915316,545804.7221070197,553130.036965613,TASK2
2026-04-28T10:56:52.328+00:00,1192,85299,150714.21423127822,106648.19707252944,552432.3272624406,201146.11996962072,143814.56599409174,158478.9420341184,545797.0107551826,553118.5705207074,TASK2
2026-04-28T10:56:52.328+00:00,1192,85300,150715.823556879,106647.45946496242,552420.5925966016,201145.3823620537,143814.83421502518,158474.98577534984,545783.6667637428,553106.8358548684,TASK2
2026-04-28T10:56:52.328+00:00,1192,85301,150714.01306557812,106647.45946496242,552412.0765819642,201141.96254515206,143812.75550279085,158472.90706311548,545774.0778653715,553098.319840231,TASK2
2026-04-28T10:56:52.328+00:00,1192,85302,150713.81189987803,106647.86179636262,552406.3098318947,201141.15788235166,143815.16949119203,158475.9916038503,545772.4685397707,553093.2906977285,TASK2
2026-04-28T10:56:52.328+00:00,1192,85303,150714.61656267842,106647.39240972904,552398.5984800576,201140.6884957181,143816.24237492587,158476.52804571725,545772.2673740706,553085.8475668249,TASK2
2026-04-28T10:56:52.328+00:00,1192,85304,150713.34251324448,106645.58191842817,552386.595593285,201140.21910908452,143816.04120922578,158476.05865908368,545769.3839990358,553073.3082381855,TASK2
2026-04-28T10:56:52.328+00:00,1192,85305,150712.8731266109,106643.77142712729,552373.7880437121,201138.6768387171,143813.42605512452,158475.58927245013,545768.1099496019,553060.7689095461,TASK2
2026-04-28T10:56:52.328+00:00,1192,85306,150708.91686784232,106642.22915675987,552391.2224043873,201136.06168461585,143813.69427605797,158476.12571431705,545768.3781705353,553083.5676888905,TASK2
2026-04-28T10:56:52.328+00:00,1192,85307,150705.2288300072,106641.22332825938,552462.8373936221,201135.59229798228,143817.44936912647,158477.46681898437,545769.9874961361,553152.5004687906,TASK2
2026-04-28T10:56:52.328+00:00,1192,85308,150704.2230015067,106642.56443292671,552471.1522425595,201136.39696078267,143815.90709875905,158477.46681898437,545769.9874961361,553158.1331083933,TASK2
2026-04-28T10:56:52.328+00:00,1192,85309,150703.48539393969,106642.56443292671,552458.0764720532,201134.85469041526,143814.36482839164,158475.38810675003,545766.5676792344,553145.3255588205,TASK2
2026-04-28T10:56:52.328+00:00,1192,85310,150702.74778637267,106642.09504629314,552445.5371434137,201131.4348735136,143814.90127025856,158471.96828984836,545762.074978599,553132.5180092476,TASK2
2026-04-28T10:56:52.328+00:00,1192,85311,150700.93729507178,106642.63148816007,552435.9482450424,201129.6243822127,143814.431883625,158466.40270547898,545765.2936298006,553122.6608899428,TASK2
2026-04-28T10:56:52.328+00:00,1192,85312,150698.3221409705,106641.89388059304,552428.2368932053,201129.4232165126,143813.42605512452,158462.17822577694,545771.4627112702,553114.6813171722,TASK2
2026-04-28T10:56:52.328+00:00,1192,85313,150699.1268037709,106641.89388059304,552418.647994834,201132.64186771418,143812.42022662403,158459.02662980874,545772.2673740706,553105.3606397343,TASK2
2026-04-28T10:56:52.328+00:00,1192,85314,150700.73612937168,106642.43032245997,552406.1086661946,201134.25119331497,143812.42022662403,158453.9974873063,545769.9204409028,553092.8213110949,TASK2
2026-04-28T10:56:52.328+00:00,1192,85315,150700.53496367158,106640.08338929217,552395.4468840894,201132.70892294755,143811.41439812354,158449.50478667076,545769.7192752027,553082.1595289898,TASK2
2026-04-28T10:56:52.328+00:00,1192,85316,150699.26091423765,106637.4682351909,552387.1990903853,201129.8255479128,143809.06746495573,158445.5485279022,545776.9612404061,553073.6435143523,TASK2
2026-04-28T10:56:52.328+00:00,1192,85317,150697.18220200329,106635.65774389001,552380.5606222821,201130.09376884627,143806.45231085445,158445.07914126862,545789.567624279,553067.541488116,TASK2
2026-04-28T10:56:52.328+00:00,1192,85318,150696.44459443627,106635.18835725645,552372.0446076447,201133.31242004785,143808.86629925563,158446.42024593594,545796.2731476156,553059.293694412,TASK2
2026-04-28T10:56:52.328+00:00,1192,85319,150698.05392003705,106634.7189706229,552359.7734999387,201135.99462938248,143805.71470328743,158444.3415337016,545801.3693453514,553046.7543657726,TASK2
2026-04-28T10:56:52.328+00:00,1192,85320,150697.85275433696,106633.98136305586,552349.379938767,201134.7205799485,143800.68556078497,158443.3357052011,545810.4888570892,553036.3608046009,TASK2
2026-04-28T10:56:52.328+00:00,1192,85321,150695.7740421026,106632.70731362191,552345.9601218653,201130.76432117994,143799.14329041756,158438.57478363212,545822.0223572281,553033.7456504996,TASK2
2026-04-28T10:56:52.328+00:00,1192,85322,150694.23177173518,106631.1650432545,552345.2225142983,201128.41738801214,143803.16660441953,158434.35030393008,545833.0194155001,553032.7398219991,TASK2
2026-04-28T10:56:52.328+00:00,1192,85323,150693.2259432347,106631.70148512142,552336.4382787273,201128.95382987906,143806.38525562108,158433.07625449612,545837.0427295021,553024.2238073616,TASK2
2026-04-28T10:56:52.328+00:00,1192,85324,150693.49416416817,106632.50614792181,552324.9718338217,201130.29493454637,143803.23365965288,158431.26576319523,545836.5733428685,553012.4891415226,TASK2
2026-04-28T10:56:52.328+00:00,1192,85325,150692.75655660115,106630.69565662094,552314.3100517166,201130.8313764133,143801.15494741854,158429.72349282782,545835.0310725011,553001.559138484,TASK2
2026-04-28T10:56:52.328+00:00,1192,85326,150690.94606530026,106629.68982812045,552306.3304789461,201127.94800137857,143801.69138928546,158427.10833872657,545833.4888021337,552993.8477866468,TASK2
2026-04-28T10:56:52.328+00:00,1192,85327,150693.96355080174,106629.48866242035,552300.9660602768,201125.1316815772,143806.85464225465,158424.76140555876,545835.3663486679,552988.4833679775,TASK2
2026-04-28T10:56:52.328+00:00,1192,85328,150696.64576013637,106630.02510428727,552293.5229293732,201123.05296934285,143810.87795625662,158420.80514679017,545833.555857367,552981.3084580074,TASK2
2026-04-28T10:56:52.328+00:00,1192,85329,150699.8644113379,106634.3166392227,552283.6658100684,201121.7789199089,143812.48728185738,158417.65355082197,545824.5034008627,552971.1831177692,TASK2
2026-04-28T10:56:52.328+00:00,1192,85330,150702.01017880562,106635.1213020231,552273.5404698302,201121.7789199089,143810.94501148997,158415.84305952108,545814.9145024914,552960.521335664,TASK2
2026-04-28T10:56:52.328+00:00,1192,85331,150702.54662067257,106634.38369445606,552265.5608970596,201122.04714084236,143812.55433709075,158413.2279054198,545811.4946855897,552952.2735419599,TASK2
2026-04-28T10:56:52.328+00:00,1192,85332,150701.80901310555,106636.52946192377,552261.6046382909,201121.84597514226,143817.11409295964,158411.95385598586,545812.0311274566,552948.5855041249,TASK2
2026-04-28T10:56:52.328+00:00,1192,85333,150700.80318460506,106639.74811312533,552257.1119376555,201120.84014664177,143817.91875576004,158407.7293762838,545809.1477524218,552944.0928034893,TASK2
2026-04-28T10:56:52.328+00:00,1192,85334,150699.26091423765,106639.54694742523,552247.7912602177,201121.91303037564,143817.71759005994,158401.62735004752,545801.1681796513,552935.040346985,TASK2
2026-04-28T10:56:52.328+00:00,1192,85335,150696.64576013637,106640.08338929217,552237.6659199793,201121.44364374207,143820.39979939457,158395.25710287775,545796.6754790158,552924.6467858133,TASK2
2026-04-28T10:56:52.328+00:00,1192,85336,150691.88483856738,106640.61983115909,552295.869862541,201118.29204777387,143817.24820342637,158391.56906504263,545796.4743133157,552992.5066819795,TASK2
2026-04-28T10:56:52.328+00:00,1192,85337,150687.1239169984,106639.6140026586,552532.7089467894,201118.56026870734,143811.41439812354,158390.0267946752,545796.0049266821,553229.0775452945,TASK2
2026-04-28T10:56:52.328+00:00,1192,85338,150686.65453036485,106636.19418575695,552603.2510522903,201120.97425710852,143809.06746495573,158387.94808244085,545797.8824732164,553290.5001390576,TASK2
2026-04-28T10:56:52.328+00:00,1192,85339,150684.30759719704,106632.23792698835,552588.2977352497,201119.43198674108,143801.89255498556,158385.86937020652,545796.3402028489,553275.5468220171,TASK2
2026-04-28T10:56:52.328+00:00,1192,85340,150679.27845469458,106628.0134472863,552573.6126391427,201112.79351863786,143801.89255498556,158382.1813323714,545792.1157231469,553260.5935049765,TASK2
2026-04-28T10:56:52.328+00:00,1192,85341,150674.24931219214,106625.39829318503,552561.6097523702,201106.69149240156,143801.15494741854,158377.6886317359,545788.4276853118,553248.590618204,TASK2
2026-04-28T10:56:52.328+00:00,1192,85342,150669.75661155663,106621.97847628337,552550.411528398,201102.46701269952,143800.95378171845,158376.14636136845,545791.1098946464,553237.6606151654,TASK2
2026-04-28T10:56:52.328+00:00,1192,85343,150668.21434118922,106620.43620591595,552539.2133044259,201100.9247423321,143802.56310731923,158375.40875380143,545796.2060923822,553226.4623911933,TASK2
2026-04-28T10:56:52.328+00:00,1192,85344,150667.4767336222,106620.97264778288,552526.9421967199,201098.5778091643,143804.17243292002,158375.94519566835,545796.4743133157,553213.9230625537,TASK2
2026-04-28T10:56:52.328+00:00,1192,85345,150663.78869578705,106621.24086871634,552514.4028680805,201095.96265506302,143801.82549975222,158377.55452126914,545790.3722870793,553201.3837339144,TASK2
2026-04-28T10:56:52.328+00:00,1192,85346,150661.44176261924,106620.50326114932,552503.2046441084,201091.20173349403,143800.01500845133,158376.2804718352,545785.343144577,553190.1855099422,TASK2
2026-04-28T10:56:52.328+00:00,1192,85347,150660.43593411875,106621.3079239497,552496.2979550717,201087.5136956589,143797.39985435005,158376.54869276864,545782.1915486087,553183.2788209056,TASK2
2026-04-28T10:56:52.328+00:00,1192,85348,150662.58170158646,106622.64902861703,552488.5866032346,201087.04430902534,143797.39985435005,158379.2309021033,545782.9962114091,553175.835690002,TASK2
2026-04-28T10:56:52.328+00:00,1192,85349,150664.99568998764,106623.99013328434,552476.0472745952,201088.1171927592,143792.37071184762,158382.44955330485,545782.5268247756,553163.2963613626,TASK2
2026-04-28T10:56:52.328+00:00,1192,85350,150666.33679465496,106623.52074665079,552464.0443878227,201087.3795851922,143790.29199961326,158385.66820450642,545781.2527753416,553150.757032723,TASK2
2026-04-28T10:56:52.328+00:00,1192,85351,150664.25808242062,106622.5149181503,552457.674140653,201087.3795851922,143795.38819734906,158385.46703880632,545781.2527753416,553144.3867855533,TASK2
2026-04-28T10:56:52.650+00:00,1193,85352,150663.25225392013,106622.04553151673,552454.2543237513,201088.45246892603,143796.7293020164,158384.99765217275,545784.2032056097,553141.2351895851,TASK2
2026-04-28T10:56:52.650+00:00,1193,85353,150666.20268418823,106623.38663618405,552445.2018672469,201091.13467826069,143798.87506948411,158387.6798615074,545789.2994033456,553132.1827330807,TASK2
2026-04-28T10:56:52.650+00:00,1193,85354,150672.7740970581,106627.34289495264,552433.2660357078,201096.29793122984,143806.31820038773,158391.2337888758,545790.9087289463,553120.4480672417,TASK2
2026-04-28T10:56:52.650+00:00,1193,85355,150677.60207386044,106628.95222055342,552422.6042536026,201096.29793122984,143812.48728185738,158389.95973944184,545785.8795864439,553109.7862851365,TASK2
2026-04-28T10:56:52.650+00:00,1193,85356,150679.74784132815,106630.5615461542,552413.5517970981,201094.48743992898,143815.43771212548,158389.49035280827,545784.6055370099,553100.7338286322,TASK2
2026-04-28T10:56:52.650+00:00,1193,85357,150680.01606226162,106632.70731362191,552406.376887128,201095.29210272935,143815.97415399243,158393.51366681024,545792.3839440803,553093.558918662,TASK2
2026-04-28T10:56:52.650+00:00,1193,85358,150682.69827159625,106634.3166392227,552397.8608724906,201099.31541673132,143816.51059585935,158398.87808547952,545803.112781419,553084.5064621576,TASK2
2026-04-28T10:56:52.650+00:00,1193,85359,150686.7215855982,106634.3166392227,552385.0533229177,201098.84603009775,143814.70010455846,158400.48741108028,545810.086525689,553071.9671335182,TASK2
2026-04-28T10:56:52.650+00:00,1193,85360,150686.7215855982,106634.58486015616,552372.7822152117,201094.88977132915,143814.70010455846,158400.75563201375,545813.8416187575,553059.9642467457,TASK2
2026-04-28T10:56:52.650+00:00,1193,85361,150681.96066402923,106636.19418575695,552363.9979796407,201092.54283816135,143817.3823138931,158402.36495761454,545820.0107002271,553051.1800111748,TASK2
2026-04-28T10:56:52.650+00:00,1193,85362,150676.39507965985,106636.99884855733,552356.8230696706,201091.53700966088,143816.91292725955,158405.85182974956,545828.3255491644,553044.5415430715,TASK2
2026-04-28T10:56:52.650+00:00,1193,85363,150674.31636742552,106639.14461602505,552349.1117178336,201091.33584396078,143814.29777315827,158408.80226001766,545836.9086190354,553036.561970301,TASK2
2026-04-28T10:56:52.650+00:00,1193,85364,150673.84698079195,106641.82682535968,552338.7181566618,201089.79357359334,143815.10243595866,158409.07048095114,545844.1505842388,553026.4366300626,TASK2
2026-04-28T10:56:52.650+00:00,1193,85365,150673.37759415837,106640.82099685918,552328.0563745566,201086.91019855862,143818.05286622676,158408.3328733841,545849.5150029081,553015.506627024,TASK2
2026-04-28T10:56:52.650+00:00,1193,85366,150671.29888192404,106640.35161022563,552342.5403049637,201081.34461418926,143814.90127025856,158405.1812774159,545855.6840843778,553034.5503133,TASK2
2026-04-28T10:56:52.650+00:00,1193,85367,150671.56710285752,106639.07756079167,552413.0824104646,201078.19301822106,143809.06746495573,158403.63900704848,545857.8298518455,553103.7513141336,TASK2
2026-04-28T10:56:52.650+00:00,1193,85368,150672.90820752483,106638.07173229118,552428.371003672,201076.9189687871,143806.72053178793,158402.09673668107,545852.800709343,553115.5530352059,TASK2
2026-04-28T10:56:52.650+00:00,1193,85369,150672.43882089126,106638.33995322465,552415.5634540991,201075.9131402866,143807.25697365485,158401.89557098097,545844.552915639,553102.4772646996,TASK2
2026-04-28T10:56:52.650+00:00,1193,85370,150672.43882089126,106637.87056659108,552402.4876835928,201073.02976525188,143807.05580795475,158402.4320128479,545836.841563802,553089.6697151267,TASK2
2026-04-28T10:56:52.650+00:00,1193,85371,150670.62832959037,106636.32829622367,552393.7034480219,201066.92773901558,143798.00335145034,158399.01219594624,545832.080642233,553080.6172586223,TASK2
2026-04-28T10:56:52.650+00:00,1193,85372,150667.74495455564,106636.59651715713,552387.0649799187,201061.3621546462,143799.0762351842,158394.25127437725,545831.3430346659,553073.9787905191,TASK2
2026-04-28T10:56:52.650+00:00,1193,85373,150668.54961735604,106637.40117995752,552378.8171862146,201060.89276801265,143801.22200265192,158395.32415811112,545828.4596596312,553065.9992177485,TASK2
2026-04-28T10:56:52.650+00:00,1193,85374,150669.6225010899,106636.93179332397,552366.5460785086,201060.69160231255,143799.94795321795,158398.81103024614,545821.0165287276,553053.4598891091,TASK2
2026-04-28T10:56:52.650+00:00,1193,85375,150670.15894295683,106635.38952295655,552354.8114126696,201055.93068074356,143799.74678751786,158399.61569304654,545810.6229675559,553041.7252232701,TASK2
2026-04-28T10:56:52.650+00:00,1193,85376,150669.15311445633,106633.57903165567,552346.8318398991,201051.70620104152,143798.47273808392,158399.14630641296,545798.0836389165,553033.7456504996,TASK2
2026-04-28T10:56:52.650+00:00,1193,85377,150667.34262315545,106631.23209848786,552340.4615927293,201049.35926787366,143799.2774008843,158397.33581511208,545789.2994033456,553027.3754033298,TASK2
2026-04-28T10:56:52.650+00:00,1193,85378,150666.8732365219,106628.88516532005,552333.2866827592,201049.15810217356,143805.44648235396,158397.87225697903,545775.9554119057,553019.9322724262,TASK2
2026-04-28T10:56:52.650+00:00,1193,85379,150667.94612025574,106627.87933681956,552322.624900654,201047.61583180615,143806.25114515435,158399.48158257979,545758.051664597,553009.5387112545,TASK2
2026-04-28T10:56:52.650+00:00,1193,85380,150667.74495455564,106626.87350831908,552311.9631185489,201044.19601490448,143802.8313282527,158398.74397501277,545743.3665684899,552998.8769291493,TASK2
2026-04-28T10:56:52.650+00:00,1193,85381,150668.01317548912,106625.0630170182,552307.4704179133,201042.9219654705,143804.44065385347,158396.12882091152,545731.6319026508,552994.6524494472,TASK2
2026-04-28T10:56:52.650+00:00,1193,85382,150668.54961735604,106626.67234261899,552308.2750807137,201046.14061667208,143800.75261601835,158396.12882091152,545719.3607949449,552995.1888913142,TASK2
2026-04-28T10:56:52.650+00:00,1193,85383,150669.08605922296,106627.74522635284,552301.368391677,201052.04147720835,143800.75261601835,158396.93348371188,545703.8710360373,552988.550423211,TASK2
2026-04-28T10:56:52.650+00:00,1193,85384,150669.6225010899,106626.73939785235,552290.4383886383,201053.11436094219,143801.28905788527,158398.81103024614,545685.1626259283,552977.3521992388,TASK2
2026-04-28T10:56:52.650+00:00,1193,85385,150670.2259981902,106629.01927578679,552281.1847664338,201052.44380860854,143799.2774008843,158404.91305648244,545670.0751984209,552968.8361846013,TASK2
2026-04-28T10:56:52.650+00:00,1193,85386,150669.2201696897,106628.54988915323,552273.4734145968,201051.70620104152,143796.66224678303,158406.52238208323,545658.8769744488,552960.8566118308,TASK2
2026-04-28T10:56:52.650+00:00,1193,85387,150667.94612025574,106627.54406065274,552268.1760511609,201052.24264290844,143794.85175548214,158408.93637048439,545651.9702854122,552955.2910274614,TASK2
2026-04-28T10:56:52.650+00:00,1193,85388,150667.74495455564,106626.00179028531,552261.2693621241,201052.51086384192,143794.3823688486,158409.47281235133,545647.7458057101,552948.6525593582,TASK2
2026-04-28T10:56:52.650+00:00,1193,85389,150668.8178382895,106624.72774085136,552249.8029172185,201050.96859347448,143797.06457818323,158410.00925421825,545638.1569073388,552937.7225563196,TASK2
2026-04-28T10:56:52.650+00:00,1193,85390,150668.08023072247,106623.18547048395,552239.6775769803,201048.6216603066,143796.3269706162,158412.15502168596,545624.5446949655,552927.3289951478,TASK2
2026-04-28T10:56:52.650+00:00,1193,85391,150664.66041382082,106621.91142105,552233.0391088771,201044.9336224715,143796.59519154966,158411.6856350524,545613.6146919269,552920.4223061112,TASK2
2026-04-28T10:56:52.650+00:00,1193,85392,150662.04525971954,106620.9055925495,552229.6192919754,201042.85491023716,143788.61561877912,158409.33870188458,545599.4660376866,552916.734268276,TASK2
2026-04-28T10:56:52.650+00:00,1193,85393,150661.03943121905,106621.7102553499,552223.5172657392,201042.65374453706,143789.15206064604,158408.06465245064,545579.4165229102,552910.6322420398,TASK2
2026-04-28T10:56:52.650+00:00,1193,85394,150659.2289399182,106623.8560228176,552213.9283673678,201041.91613697005,143791.56604904722,158405.71771928284,545556.9530197326,552900.775122735,TASK2
2026-04-28T10:56:52.650+00:00,1193,85395,150655.2726811496,106624.92890655146,552205.4123527304,201038.76454100184,143787.0733484117,158400.68857678038,545540.3903770912,552892.5273290309,TASK2
2026-04-28T10:56:52.650+00:00,1193,85396,150649.7070967802,106623.92307805098,552271.6629232959,201032.39429383207,143782.5806477762,158392.97722494332,545529.4603740526,552968.9702950681,TASK2
2026-04-28T10:56:52.650+00:00,1193,85397,150646.28727987857,106618.89393554853,552506.8926819435,201030.58380253118,143777.55150527373,158385.26587310623,545520.1396966147,553203.6636118488,TASK2
2026-04-28T10:56:52.650+00:00,1193,85398,150643.94034671073,106612.79190931223,552578.5076711783,201030.38263683108,143775.20457210593,158377.01807940222,545513.5012285114,553266.4273102793,TASK2
2026-04-28T10:56:52.650+00:00,1193,85399,150639.98408794217,106607.22632494287,552563.5543541377,201026.69459899596,143771.5165342708,158368.50206476473,545501.2301208056,553251.2057723053,TASK2
2026-04-28T10:56:52.650+00:00,1193,85400,150637.9053757078,106603.27006617427,552549.4056998976,201021.39723556006,143765.95094990145,158361.8635966615,545489.227234033,553237.0571180651,TASK2
2026-04-28T10:56:52.650+00:00,1193,85401,150635.02200067308,106600.11847020607,552538.2074759254,201016.63631399107,143765.48156326788,158358.7120006933,545478.8336728613,553225.858894093,TASK2
2026-04-28T10:56:52.650+00:00,1193,85402,150631.87040470488,106597.77153703826,552528.3503566206,201010.80250868824,143760.45242076545,158361.39421002797,545473.8045303589,553216.538216655,TASK2
2026-04-28T10:56:52.650+00:00,1193,85403,150631.4010180713,106595.9610457374,552518.2250163824,201008.7237964539,143759.98303413187,158365.95396589683,545467.970725056,553206.1446554833,TASK2
2026-04-28T10:56:52.650+00:00,1193,85404,150633.27856460557,106594.9552172369,552504.8810249425,201006.91330515302,143763.73812720037,158366.49040776378,545457.3089429509,553192.53244311,TASK2
2026-04-28T10:56:52.650+00:00,1193,85405,150632.809177972,106593.68116780295,552492.3416963031,201003.2252673179,143763.2687405668,158368.09973336454,545447.988265513,553180.2613354041,TASK2
2026-04-28T10:56:52.650+00:00,1193,85406,150633.54678553902,106593.88233350305,552483.6915711989,201000.4760027499,143764.14045860057,158368.63617523148,545444.6355038447,553171.0077131996,TASK2
2026-04-28T10:56:52.650+00:00,1193,85407,150632.0045151716,106593.88233350305,552475.9802193618,201000.74422368334,143764.6769004675,158368.4350095314,545443.3614544107,553163.028140429,TASK2
2026-04-28T10:56:52.650+00:00,1193,85408,150632.0045151716,106594.1505544365,552466.123100057,201003.15821208453,143767.09088886867,158371.65366073293,545444.4343381446,553153.1710211242,TASK2
2026-04-28T10:56:52.650+00:00,1193,85409,150633.07739890547,106592.87650500255,552453.8519923511,201005.84042141915,143766.6215022351,158369.5749484986,545442.8920677772,553141.1681343517,TASK2
2026-04-28T10:56:52.650+00:00,1193,85410,150633.07739890547,106591.6024555686,552442.117326512,201009.05907262073,143765.6156737346,158365.0822478631,545438.1311462082,553129.7016894462,TASK2
2026-04-28T10:56:52.650+00:00,1193,85411,150629.6575820038,106591.13306893504,552470.8169663927,201009.86373542112,143765.14628710106,158359.24844256026,545426.3964803691,553164.83863173,TASK2
2026-04-28T10:56:52.650+00:00,1193,85412,150627.310648836,106591.4012898685,552567.644723373,201011.74128195536,143765.4145080345,158354.75574192472,545415.734698264,553258.4477375088,TASK2
2026-04-28T10:56:52.650+00:00,1193,85413,150625.5001575351,106590.93190323494,552578.9100025785,201015.49637502385,143761.72647019938,158354.0181343577,545403.463590558,553265.9579236457,TASK2
2026-04-28T10:56:52.650+00:00,1193,85414,150623.9578871677,106589.38963286753,552566.1024530056,201018.1785843585,143754.28333929577,158352.4758639903,545386.3645060497,553253.1503740728,TASK2
2026-04-28T10:56:52.650+00:00,1193,85415,150622.9520586672,106590.73073753485,552552.7584615658,201018.44680529195,143750.8635223941,158350.12893082248,545366.3149912733,553239.5381616995,TASK2
2026-04-28T10:56:52.650+00:00,1193,85416,150619.80046269903,106592.6082840691,552541.5602375937,201015.56343025723,143747.98014735937,158348.58666045507,545345.192592763,553228.071716794,TASK2
2026-04-28T10:56:52.650+00:00,1193,85417,150616.38064579736,106593.68116780295,552533.0442229563,201012.14361335555,143743.21922579038,158349.6595441889,545326.484182654,553219.5557021565,TASK2
2026-04-28T10:56:52.650+00:00,1193,85418,150613.76549169607,106595.02227247026,552522.6506617846,201010.3331220547,143741.67695542297,158351.80531165662,545311.5308656134,553209.1621409848,TASK2
2026-04-28T10:56:52.650+00:00,1193,85419,150613.76549169607,106595.02227247026,552509.0384494113,201008.79085168726,143742.48161822336,158352.0735325901,545297.3822113732,553195.2817076781,TASK2
2026-04-28T10:56:52.650+00:00,1193,85420,150612.75966319558,106593.48000210285,552495.6944579714,201007.51680225332,143743.28628102376,158349.4583784888,545282.1606733991,553181.9377162382,TASK2
2026-04-28T10:56:52.650+00:00,1193,85421,150609.07162536046,106593.48000210285,552485.8373386667,201006.51097375283,143745.43204849146,158347.64788718795,545267.2073563585,553172.6170388004,TASK2
2026-04-28T10:56:52.650+00:00,1193,85422,150607.52935499305,106595.3575486371,552477.0531030957,201005.7733661858,143749.18714155996,158347.9161081214,545260.3006673218,553163.8328032295,TASK2
2026-04-28T10:56:52.650+00:00,1193,85423,150607.32818929295,106597.5033161048,552467.1959837909,201008.187354587,143744.42621999097,158348.45254998835,545255.2715248193,553153.9756839246,TASK2
2026-04-28T10:56:52.650+00:00,1193,85424,150608.13285209335,106598.3079789052,552454.6566551515,201008.99201738735,143743.68861242395,158350.59831745605,545241.9275333795,553140.8999134183,TASK2
2026-04-28T10:56:52.650+00:00,1193,85425,150606.59058172593,106596.76570853779,552442.117326512,201007.1815260865,143742.41456299,158351.6712011899,545224.5602279378,553128.6288057123,TASK2
2026-04-28T10:56:52.650+00:00,1193,85426,150601.82966015695,106593.61411256959,552432.7966490742,201004.29815105174,143742.41456299,158350.39715175595,545211.4844574314,553119.3081282745,TASK2
2026-04-28T10:56:52.650+00:00,1193,85427,150599.48272698914,106593.88233350305,552426.9628437713,201001.14655508354,143745.3649932581,158353.6158029575,545200.8226753263,553113.4743229717,TASK2
2026-04-28T10:56:52.650+00:00,1193,85428,150599.48272698914,106596.56454283769,552417.3739454,201000.14072658308,143744.62738569107,158359.78488442718,545187.7469048199,553103.6172036668,TASK2
2026-04-28T10:56:52.650+00:00,1193,85429,150602.16493632377,106595.5587143372,552405.3710586275,200997.25735154832,143744.15799905753,158361.9306518949,545169.8431575112,553091.8825378278,TASK2
2026-04-28T10:56:52.650+00:00,1193,85430,150602.43315725724,106592.94356023593,552394.4410555889,200991.15532531202,143743.42039149048,158359.85193966053,545151.671189269,553081.2207557226,TASK2
2026-04-28T10:56:52.650+00:00,1193,85431,150602.50021249062,106594.68699630344,552386.5285380518,200986.2602932763,143742.48161822336,158361.19304432787,545134.0356628938,553073.7105695857,TASK2
2026-04-28T10:56:52.650+00:00,1193,85432,150600.68972118973,106595.49165910383,552379.0854071481,200982.30403450772,143746.50493222533,158361.7294861948,545119.6187877201,553066.267438682,TASK2
2026-04-28T10:56:52.650+00:00,1193,85433,150598.6110089554,106596.56454283769,552370.5693925106,200981.83464787417,143748.38247875957,158361.5283204947,545106.8112381472,553057.2149821776,TASK2
2026-04-28T10:56:52.650+00:00,1193,85434,150597.6051804549,106596.09515620412,552359.1029476051,200981.09704030716,143749.45536249343,158360.79071292767,545094.2719095078,553046.0167582055,TASK2
2026-04-28T10:56:52.650+00:00,1193,85435,150596.0629100875,106594.28466490324,552347.6365026995,200976.33611873817,143752.94223462846,158356.5662332256,545084.414790203,553034.8185342334,TASK2
2026-04-28T10:56:52.650+00:00,1193,85436,150593.4477559862,106591.93773173544,552338.8522671285,200968.89298783455,143750.59530146065,158353.95107912435,545074.5576708982,553025.4978567956,TASK2
2026-04-28T10:56:52.650+00:00,1193,85437,150590.296160018,106591.46834510188,552332.2137990253,200963.32740346517,143747.7119264259,158354.48752099127,545061.4819003919,553019.1276096258,TASK2
2026-04-28T10:56:52.650+00:00,1193,85438,150588.7538896506,106593.61411256959,552324.7706681216,200960.71224936392,143746.70609792543,158353.74991342425,545049.7472345527,553011.4162577887,TASK2
2026-04-28T10:56:52.650+00:00,1193,85439,150586.4069564828,106595.7598800373,552314.3771069499,200960.24286273035,143746.50493222533,158349.2572127887,545035.5985803126,553000.7544756836,TASK2
2026-04-28T10:56:52.650+00:00,1193,85440,150584.5964651819,106595.5587143372,552304.5199876452,200958.96881329638,143743.62155719058,158344.7645121532,545020.645263272,552991.4337982456,TASK2
2026-04-28T10:56:52.650+00:00,1193,85441,150579.56732267948,106592.407118369,552384.7180467509,200952.33034519316,143744.15799905753,158340.54003245116,545000.5957484955,553082.3606946899,TASK2
2026-04-28T10:56:52.650+00:00,1193,85442,150574.26995924357,106587.10975493309,552632.2859683378,200949.98341202535,143739.66529842198,158336.58377368256,544981.8873383865,553326.4417441419,TASK2
2026-04-28T10:56:52.650+00:00,1193,85443,150572.1912470092,106583.1534961645,552684.3208294298,200949.98341202535,143730.88106285105,158333.96861958128,544958.6191724085,553370.4299772298,TASK2
2026-04-28T10:56:52.650+00:00,1193,85444,150571.72186037566,106579.46545832937,552667.2217449214,200947.63647885754,143722.3650482136,158328.40303521193,544926.4997156262,553353.3308927215,TASK2
2026-04-28T10:56:52.650+00:00,1193,85445,150570.17959000822,106574.43631582693,552650.3908813467,200946.09420849013,143716.79946384422,158323.64211364294,544896.7942472452,553336.5000291467,TASK2
2026-04-28T10:56:52.650+00:00,1193,85446,150566.75977310658,106571.28471985873,552636.7786689734,200946.3624294236,143717.8723475781,158320.75873860822,544876.7447324687,553323.1560377069,TASK2
2026-04-28T10:56:52.650+00:00,1193,85447,150563.87639807185,106570.54711229171,552627.4579915354,200946.63065035705,143715.79363534373,158318.14358450694,544858.84098516,553313.5671393356,TASK2
2026-04-28T10:56:52.650+00:00,1193,85448,150564.9492818057,106570.34594659161,552615.4551047629,200947.43531315745,143716.0618562772,158315.52843040565,544833.6952726478,553301.564252563,TASK2
2026-04-28T10:56:52.650+00:00,1193,85449,150564.9492818057,106570.88238845853,552599.9653458555,200947.43531315745,143715.59246964363,158314.5226019052,544805.8673508009,553286.8791564559,TASK2
2026-04-28T10:56:52.650+00:00,1193,85450,150564.7481161056,106570.14478089151,552585.5484706818,200946.9659265239,143714.05019927621,158316.6683693729,544778.0394289541,553272.4622812823,TASK2
2026-04-28T10:56:52.650+00:00,1193,85451,150562.40118293779,106568.87073145756,552573.5455839093,200943.27788868875,143712.5079289088,158316.19898273933,544754.2348211092,553259.9229526428,TASK2
2026-04-28T10:56:52.962+00:00,1194,85452,150560.05424976998,106570.48005705835,552563.420243671,200939.58985085363,143710.69743760792,158313.85204957152,544735.526411,553249.5293914711,TASK2
2026-04-28T10:56:52.962+00:00,1194,85453,150562.46823817116,106571.5529407922,552552.2220196989,200937.5111386193,143716.59829814412,158313.65088387142,544716.5497799575,553238.5993884325,TASK2
2026-04-28T10:56:52.962+00:00,1194,85454,150564.3457847054,106573.43048732643,552538.6098073256,200935.43242638494,143715.32424871018,158314.18732573834,544691.6722883788,553224.7189551257,TASK2
2026-04-28T10:56:52.962+00:00,1194,85455,150563.87639807185,106573.96692919337,552524.7293740188,200930.4032838825,143711.63621087503,158312.64505537093,544663.307924665,553211.1067427524,TASK2
2026-04-28T10:56:52.962+00:00,1194,85456,150561.26124397057,106572.15643789248,552516.7498012483,200923.22837391237,143710.63038237454,158312.9132763044,544643.7948517555,553203.6636118488,TASK2
2026-04-28T10:56:52.962+00:00,1194,85457,150559.45075266968,106571.150609392,552512.5253215462,200919.0038942103,143711.97148704188,158312.44388967083,544629.9144184488,553198.9026902799,TASK2
2026-04-28T10:56:52.962+00:00,1194,85458,150562.06590677096,106572.49171405932,552502.1988156079,200918.33334187666,143717.00062954432,158312.44388967083,544613.2176653406,553189.045570975,TASK2
2026-04-28T10:56:52.962+00:00,1194,85459,150565.01633703907,106574.90570246048,552489.1230451015,200917.0592924427,143714.1172545096,158310.3651774365,544588.0719528284,553175.9698004687,TASK2
2026-04-28T10:56:52.962+00:00,1194,85460,150563.20584573818,106577.0514699282,552475.7790536617,200913.37125460757,143714.92191730998,158308.5546861356,544563.1944612496,553162.3575880954,TASK2
2026-04-28T10:56:52.962+00:00,1194,85461,150559.24958696958,106576.31386236117,552465.9219343569,200906.73278650435,143715.4583591769,158306.47597390128,544547.7047023422,553152.5004687906,TASK2
2026-04-28T10:56:52.962+00:00,1194,85462,150555.56154913447,106575.03981292722,552458.2105825199,200901.97186493536,143716.79946384422,158306.0065872677,544538.3840249043,553144.2526750866,TASK2
2026-04-28T10:56:52.962+00:00,1194,85463,150553.75105783358,106576.38091759454,552448.353463215,200898.01560616677,143713.9160888095,158306.0065872677,544520.2120566621,553134.6637767153,TASK2
2026-04-28T10:56:52.962+00:00,1194,85464,150553.54989213348,106579.33134786264,552436.0823555092,200893.25468459778,143712.37381844208,158306.54302913463,544493.4570185491,553121.8562271424,TASK2
2026-04-28T10:56:52.962+00:00,1194,85465,150553.08050549994,106580.94067346342,552423.5430268697,200887.15265836148,143710.5633271412,158306.8112500681,544465.0926548353,553109.316898503,TASK2
2026-04-28T10:56:52.962+00:00,1194,85466,150551.80645606597,106578.86196122908,552412.8812447645,200880.78241119173,143710.3621614411,158304.19609596682,544441.8244888574,553098.6551163978,TASK2
2026-04-28T10:56:52.962+00:00,1194,85467,150551.06884849895,106578.12435366206,552404.365230127,200878.7036989574,143709.62455387408,158302.6538255994,544424.1889624821,553090.1391017603,TASK2
2026-04-28T10:56:52.962+00:00,1194,85468,150551.33706943243,106577.65496702849,552394.5081108223,200878.5025332573,143711.77032134178,158303.4584883998,544408.1627617077,553080.2819824555,TASK2
2026-04-28T10:56:52.962+00:00,1194,85469,150551.33706943243,106576.11269666108,552381.7005612494,200876.96026288986,143712.3067632087,158303.99493026672,544389.1861306651,553067.7426538161,TASK2
2026-04-28T10:56:52.962+00:00,1194,85470,150550.06301999846,106574.3022053602,552370.5023372773,200870.85823665358,143711.83737657513,158301.37977616547,544375.3056973583,553056.8126507774,TASK2
2026-04-28T10:56:52.962+00:00,1194,85471,150545.83854029642,106571.150609392,552392.2282328878,200863.68332668341,143707.07645500617,158299.56928486458,544362.4981477854,553084.4394069242,TASK2
2026-04-28T10:56:52.962+00:00,1194,85472,150542.41872339475,106569.60833902458,552487.178443334,200861.87283538253,143703.12019623758,158301.7150523323,544351.2999238133,553178.048512703,TASK2
2026-04-28T10:56:52.962+00:00,1194,85473,150542.41872339475,106568.33428959062,552506.7585714768,200861.87283538253,143701.57792587017,158302.5197151327,544342.7839091759,553192.8006640435,TASK2
2026-04-28T10:56:52.962+00:00,1194,85474,150543.22338619514,106565.98735642282,552492.0734753697,200861.40344874898,143701.37676017007,158301.5138866322,544328.9034758691,553177.847347003,TASK2
2026-04-28T10:56:52.962+00:00,1194,85475,150540.60823209386,106566.52379828975,552478.7294839298,200859.32473651462,143694.73829206682,158300.23983719823,544314.4866006955,553164.2351346296,TASK2
2026-04-28T10:56:52.962+00:00,1194,85476,150536.92019425874,106567.5966820236,552468.3359227581,200856.97780334682,143692.391358899,158297.89290403042,544299.5332836548,553153.5733525244,TASK2
2026-04-28T10:56:52.962+00:00,1194,85477,150533.23215642362,106569.20600762438,552460.6245709211,200855.97197484632,143690.8490885316,158297.42351739688,544285.9210712815,553145.8620006874,TASK2
2026-04-28T10:56:52.962+00:00,1194,85478,150534.30504015746,106571.08355415863,552449.9627888158,200854.96614634586,143692.9948559993,158300.64216859842,544271.504196108,553136.0048813826,TASK2
2026-04-28T10:56:52.962+00:00,1194,85479,150536.71902855864,106571.88821695902,552436.0823555092,200852.61921317803,143693.7995187997,158302.2514941992,544252.7957859988,553122.3926690093,TASK2
2026-04-28T10:56:52.962+00:00,1194,85480,150539.66945882674,106571.150609392,552422.2019222024,200848.66295440946,143699.16393746898,158304.6654826004,544230.3322828213,553108.780456636,TASK2
2026-04-28T10:56:52.962+00:00,1194,85481,150539.93767976022,106569.34011809112,552412.8812447645,200842.56092817316,143701.57792587017,158305.73836633423,544210.5509889784,553098.6551163978,TASK2
2026-04-28T10:56:52.962+00:00,1194,85482,150538.66363032625,106571.21766462536,552405.9745557278,200839.40933220496,143696.01234150078,158306.54302913463,544199.6209859396,553091.4802064276,TASK2
2026-04-28T10:56:52.962+00:00,1194,85483,150541.88228152783,106574.43631582693,552396.65387829,200838.135282771,143699.4992136358,158312.17566873736,544191.6414131691,553082.6959708567,TASK2
2026-04-28T10:56:52.962+00:00,1194,85484,150544.56449086245,106576.85030422811,552384.1145496506,200837.39767520397,143702.4496439039,158317.00364553972,544179.9067473301,553069.8884212838,TASK2
2026-04-28T10:56:52.962+00:00,1194,85485,150544.36332516235,106578.45962982888,552372.648104745,200837.39767520397,143701.98025727036,158318.88119207395,544169.7814070918,553058.4219763782,TASK2
2026-04-28T10:56:52.962+00:00,1194,85486,150543.08927572842,106579.53251356274,552364.4003110409,200836.12362577004,143703.32136193768,158319.4176339409,544164.7522645894,553050.1741826743,TASK2
2026-04-28T10:56:52.962+00:00,1194,85487,150543.08927572842,106581.67828103044,552358.5665057381,200835.386018203,143699.901545036,158322.63628514245,544159.4549011535,553043.8039355044,TASK2
2026-04-28T10:56:52.962+00:00,1194,85488,150544.16215946226,106584.36049036508,552350.5869329675,200834.64841063597,143702.8519753041,158326.92782007786,544145.3062469133,553036.3608046009,TASK2
2026-04-28T10:56:52.962+00:00,1194,85489,150547.11258973036,106588.2496939003,552340.7298136628,200835.25190773627,143709.28927770723,158331.75579688023,544131.1575926731,553027.1742376297,TASK2
2026-04-28T10:56:52.962+00:00,1194,85490,150547.64903159728,106590.12724043455,552329.5315896907,200833.17319550193,143710.63038237454,158333.09690154754,544115.1313918986,553015.7077927241,TASK2
2026-04-28T10:56:52.962+00:00,1194,85491,150546.91142403026,106593.34589163611,552321.2837959867,200831.09448326757,143711.1668242415,158333.90156434794,544100.4462957914,553007.1917780867,TASK2
2026-04-28T10:56:52.962+00:00,1194,85492,150545.63737459632,106596.83276377115,552315.4499906838,200830.89331756748,143712.77614984228,158332.89573584744,544090.5891764867,553001.3579727839,TASK2
2026-04-28T10:56:52.962+00:00,1194,85493,150545.90559552977,106598.97853123886,552308.0068597802,200833.30730596866,143713.3125917092,158333.43217771436,544081.2684990488,552993.9148418802,TASK2
2026-04-28T10:56:52.962+00:00,1194,85494,150547.51492113055,106600.58785683964,552297.6132986085,200835.72129436984,143715.19013824343,158337.18727078286,544064.7058564074,552983.5212807085,TASK2
2026-04-28T10:56:52.962+00:00,1194,85495,150549.12424673134,106599.31380740569,552286.9515165034,200835.25190773627,143713.64786787602,158337.99193358325,544043.8516788306,552972.8594986033,TASK2
2026-04-28T10:56:52.962+00:00,1194,85496,150546.50909263006,106597.23509517135,552279.7766065332,200833.97785830233,143712.910260309,158339.33303825057,544029.9712455239,552965.6845886331,TASK2
2026-04-28T10:56:52.962+00:00,1194,85497,150544.69860132918,106597.5033161048,552274.7474640307,200832.97202980184,143717.4700161779,158341.47880571827,544020.1141262191,552960.3872251973,TASK2
2026-04-28T10:56:52.962+00:00,1194,85498,150544.69860132918,106599.64908357251,552268.377216861,200834.84957633607,143709.7586643408,158344.69745691985,544008.6476813136,552954.0169780275,TASK2
2026-04-28T10:56:52.962+00:00,1194,85499,150546.03970599652,106599.91730450597,552259.0565394231,200834.64841063597,143708.2163939734,158345.23389878677,543993.9625852064,552944.6963005896,TASK2
2026-04-28T10:56:52.962+00:00,1194,85500,150545.30209842947,106598.64325507202,552249.1994201184,200831.76503560125,143710.09394050762,158345.03273308667,543980.6185937666,552934.8391812849,TASK2
2026-04-28T10:56:52.962+00:00,1194,85501,150540.80939779396,106594.41877536997,552327.2517117562,200823.51724189724,143709.3563329406,158342.95402085234,543967.8110441937,553024.4249730617,TASK2
2026-04-28T10:56:52.962+00:00,1194,85502,150538.1942436927,106588.31674913368,552602.9828313569,200818.21987846133,143705.66829510548,158337.12021554948,543955.2717155543,553299.351429862,TASK2
2026-04-28T10:56:52.962+00:00,1194,85503,150537.1884151922,106580.87361823006,552688.8135300652,200817.21404996084,143699.02982700226,158329.94530557934,543940.3183985136,553374.7215121653,TASK2
2026-04-28T10:56:52.962+00:00,1194,85504,150534.8414820244,106573.16226639297,552672.7873292908,200813.25779119224,143694.53712636675,158324.37972120996,543922.6828721385,553358.1588695239,TASK2
2026-04-28T10:56:52.962+00:00,1194,85505,150530.8852232558,106567.5966820236,552657.8340122502,200810.10619522404,143686.28933266274,158315.32726470556,543907.4613341644,553343.2055524833,TASK2
2026-04-28T10:56:52.962+00:00,1194,85506,150526.3925226203,106565.2497488558,552645.5629045443,200806.6863783224,143677.77331802525,158308.68879660234,543898.4088776599,553331.2026657108,TASK2
2026-04-28T10:56:52.962+00:00,1194,85507,150524.5820313194,106562.63459475452,552634.9011224391,200801.9254567534,143678.30975989217,158307.4147471684,543896.0619444922,553320.5408836056,TASK2
2026-04-28T10:56:52.962+00:00,1194,85508,150525.11847318633,106563.17103662145,552624.7757822009,200799.31030265213,143674.35350112358,158309.02407276919,543894.7878950582,553310.4155433674,TASK2
2026-04-28T10:56:52.962+00:00,1194,85509,150524.91730748623,106564.51214128877,552609.2860232933,200796.96336948432,143673.88411449004,158306.94536053482,543893.2456246908,553294.6575635264,TASK2
2026-04-28T10:56:52.962+00:00,1194,85510,150522.16804291823,106564.04275465521,552596.0090870869,200793.2753316492,143676.2981028912,158307.75002333522,543889.9599182558,553281.3135720865,TASK2
2026-04-28T10:56:52.962+00:00,1194,85511,150516.87067948232,106561.96404242086,552585.6155259152,200787.44152634637,143677.10276569158,158307.75002333522,543888.9540897553,553271.1882318483,TASK2
2026-04-28T10:56:52.962+00:00,1194,85512,150513.71908351412,106560.68999298691,552577.0995112776,200782.94882571086,143676.09693719112,158306.47597390128,543883.924947253,553262.4039962774,TASK2
2026-04-28T10:56:52.962+00:00,1194,85513,150513.24969688058,106562.83576045462,552566.4377291724,200781.40655534342,143672.40889935597,158308.3535204355,543875.6771535489,553252.0104351057,TASK2
2026-04-28T10:56:52.962+00:00,1194,85514,150514.32258061442,106565.78619072272,552553.3619586661,200778.25495937525,143669.52552432125,158309.42640416935,543865.0153714437,553239.2028855328,TASK2
2026-04-28T10:56:52.962+00:00,1194,85515,150514.32258061442,106567.12729539005,552539.7497462928,200774.83514247357,143664.76460275226,158306.54302913463,543853.5489265381,553226.1271150263,TASK2
2026-04-28T10:56:52.962+00:00,1194,85516,150509.29343811193,106566.38968782302,552575.9595723104,200770.61066277153,143666.37392835304,158299.099898231,543846.1057956346,553269.0424643806,TASK2
2026-04-28T10:56:52.962+00:00,1194,85517,150503.72785374254,106565.652080256,552698.5365389034,200769.60483427104,143661.07656491714,158294.6071975955,543843.4906415333,553388.6690007054,TASK2
2026-04-28T10:56:52.962+00:00,1194,85518,150502.18558337513,106563.57336802165,552713.5569111774,200769.8730552045,143658.9978526828,158293.86959002848,543834.7064059624,553399.1296171105,TASK2
2026-04-28T10:56:52.962+00:00,1194,85519,150502.99024617553,106561.76287672076,552696.1896057355,200770.14127613796,143653.96871018034,158290.4497731268,543821.0941935891,553381.4940907352,TASK2
2026-04-28T10:56:52.962+00:00,1194,85520,150501.7161967416,106561.76287672076,552680.9680677615,200769.40366857094,143652.42643981293,158284.07952595706,543804.7997718811,553366.0043318277,TASK2
2026-04-28T10:56:52.962+00:00,1194,85521,150500.17392637415,106560.75704822029,552668.1605181886,200769.94011043786,143651.9570531794,158280.65970905538,543789.3100129736,553353.4650031882,TASK2
2026-04-28T10:56:52.962+00:00,1194,85522,150499.7045397406,106561.2934900872,552657.4987360834,200770.74477323826,143650.68300374542,158280.65970905538,543778.6482308684,553342.8032210831,TASK2
2026-04-28T10:56:52.962+00:00,1194,85523,150499.7045397406,106561.82993195414,552645.7640702444,200770.54360753816,143654.16987588044,158280.92792998886,543766.9135650294,553331.3367761775,TASK2
2026-04-28T10:56:52.962+00:00,1194,85524,150499.5033740405,106561.82993195414,552630.0060904033,200768.73311623727,143656.8520852151,158280.4585433553,543751.4238061218,553315.5787963365,TASK2
2026-04-28T10:56:52.962+00:00,1194,85525,150495.27889433844,106561.62876625404,552614.7845524293,200766.38618306947,143655.8462567146,158278.37983112095,543737.5433728151,553300.089037429,TASK2
2026-04-28T10:56:52.962+00:00,1194,85526,150489.71330996908,106561.42760055394,552601.7087819229,200761.35704056703,143654.3039863472,158275.4964560862,543726.0769279095,553287.2814878561,TASK2
2026-04-28T10:56:53.279+00:00,1195,85527,150486.2934930674,106560.42177205345,552591.0469998177,200757.13256086496,143659.66840501645,158276.3011188866,543714.074041137,553276.619705751,TASK2
2026-04-28T10:56:53.279+00:00,1195,85528,150484.48300176652,106560.95821392038,552580.3852177126,200753.17630209637,143657.58969278212,158275.2952903861,543703.9487008988,553265.6897027122,TASK2
2026-04-28T10:56:53.279+00:00,1195,85529,150484.7512227,106563.90864418847,552565.1636797385,200747.87893866046,143655.77920148123,158271.87547348446,543693.0186978602,553250.4681647383,TASK2
2026-04-28T10:56:53.279+00:00,1195,85530,150483.7453941995,106564.98152792234,552551.8196882987,200740.70402869032,143655.0415939142,158268.45565658278,543683.6980204222,553236.855952365,TASK2
2026-04-28T10:56:53.279+00:00,1195,85531,150479.52091449747,106564.98152792234,552543.3036736612,200731.9197931194,143650.5488932787,158265.30406061458,543676.5231104521,553228.6081586609,TASK2
2026-04-28T10:56:53.279+00:00,1195,85532,150475.2964347954,106565.78619072272,552536.9334264915,200724.74488314922,143646.32441357663,158263.22534838025,543672.29863075,553222.7743533581,TASK2
2026-04-28T10:56:53.279+00:00,1195,85533,150472.1448388272,106566.85907445657,552526.8080862532,200718.64285691292,143642.36815480803,158260.07375241205,543669.6834766488,553212.3807921864,TASK2
2026-04-28T10:56:53.279+00:00,1195,85534,150470.87078939326,106565.58502502262,552514.0005366803,200711.46794694278,143636.80257043868,158252.36240057496,543664.6543341463,553199.0368007466,TASK2
2026-04-28T10:56:53.279+00:00,1195,85535,150470.7366789265,106564.78036222224,552502.0647051412,200703.62248463897,143628.75594243477,158244.6510487379,543656.7418166092,553187.7044663078,TASK2
2026-04-28T10:56:53.279+00:00,1195,85536,150465.97575735755,106560.28766158671,552493.0122486368,200692.69248160033,143618.09416032958,158236.67147596733,543650.9080113063,553178.9202307368,TASK2
2026-04-28T10:56:53.279+00:00,1195,85537,150460.9466148551,106556.06318188466,552485.3008967997,200684.71290882977,143604.21372702284,158229.22834506372,543649.6339618724,553171.2088788997,TASK2
2026-04-28T10:56:53.279+00:00,1195,85538,150459.9407863546,106551.57048124915,552475.1755565614,200678.07444072654,143595.4294914519,158223.3945397609,543641.3861681684,553161.0835386615,TASK2
2026-04-28T10:56:53.279+00:00,1195,85539,150458.66673692066,106550.02821088173,552462.099786055,200669.82664702254,143588.7910233487,158216.21962979075,543625.6281883274,553147.4713262882,TASK2
2026-04-28T10:56:53.279+00:00,1195,85540,150454.17403628514,106549.02238238124,552449.8286783491,200657.82376025003,143574.91059004192,158209.31294075405,543609.065545686,553135.2002185822,TASK2
2026-04-28T10:56:53.279+00:00,1195,85541,150451.02244031694,106547.21189108037,552440.2397799778,200645.55265254408,143563.1759242029,158200.52870518313,543591.1617983773,553125.3430992775,TASK2
2026-04-28T10:56:53.279+00:00,1195,85542,150446.79796061487,106545.66962071294,552431.7237653403,200637.0366379066,143551.1730374304,158191.74446961217,543582.9140046733,553116.5588637064,TASK2
2026-04-28T10:56:53.279+00:00,1195,85543,150445.25569024746,106543.32268754514,552420.7937623017,200630.9346116703,143543.46168559333,158186.9835480432,543582.4446180398,553105.3606397343,TASK2
2026-04-28T10:56:53.279+00:00,1195,85544,150445.52391118094,106538.82998690962,552407.1815499284,200620.80927143205,143535.48211282276,158181.95440554075,543569.6370684669,553092.0166482945,TASK2
2026-04-28T10:56:53.279+00:00,1195,85545,150443.17697801313,106534.06906534065,552394.3740003555,200607.7335009257,143526.69787725183,158174.7794955706,543548.78289089,553079.7455405886,TASK2
2026-04-28T10:56:53.279+00:00,1195,85546,150433.85630057525,106527.43059723741,552475.108501328,200592.7801838851,143520.59585101553,158165.45881813273,543533.024911049,553172.549983567,TASK2
2026-04-28T10:56:53.279+00:00,1195,85547,150423.730960337,106519.45102446688,552727.2361787839,200583.19128551378,143514.49382477923,158154.79703602756,543526.3864429458,553420.9225679544,TASK2
2026-04-28T10:56:53.279+00:00,1195,85548,150417.89715503418,106512.81255636364,552779.0028189424,200576.28459647708,143508.39179854293,158147.08568419048,543520.8208585765,553464.1061382421,TASK2
2026-04-28T10:56:53.279+00:00,1195,85549,150412.3315706648,106505.90586732696,552760.5626297668,200564.54993063805,143504.1673188409,158140.44721608725,543510.9637392716,553445.9341699999,TASK2
2026-04-28T10:56:53.279+00:00,1195,85550,150405.4248816281,106500.3402829576,552743.731766192,200550.93771826476,143499.4063972719,158137.83206198597,543502.1795037007,553429.3715273585,TASK2
2026-04-28T10:56:53.279+00:00,1195,85551,150398.51819259144,106495.5793613886,552729.8513328852,200537.05728495802,143489.28105703366,158135.75334975164,543496.0774774645,553415.4910940517,TASK2
2026-04-28T10:56:53.279+00:00,1195,85552,150392.68438728858,106491.35488168655,552717.0437833123,200526.6637237863,143489.07989133356,158131.79709098305,543493.1941024297,553402.6835444788,TASK2
2026-04-28T10:56:53.279+00:00,1195,85553,150391.41033785464,106488.47150665183,552703.9680128059,200522.43924408426,143487.0011790992,158131.79709098305,543488.4331808607,553389.339553039,TASK2
2026-04-28T10:56:53.279+00:00,1195,85554,150392.48322158848,106486.39279441748,552686.8689282977,200518.48298531567,143488.07406283307,158134.47930031767,543480.9900499571,553371.7040266638,TASK2
2026-04-28T10:56:53.279+00:00,1195,85555,150391.20917215454,106484.5823031166,552669.7698437894,200511.84451721245,143485.4589087318,158137.9661724527,543473.8151399869,553355.1413840224,TASK2
2026-04-28T10:56:53.279+00:00,1195,85556,150387.25291338595,106482.50359088225,552656.4258523495,200506.54715377654,143480.16154529588,158140.9166027208,543471.7364277527,553342.065613516,TASK2
2026-04-28T10:56:53.279+00:00,1195,85557,150383.83309648428,106482.03420424869,552644.6911865105,200503.6637787418,143480.42976622935,158144.93991672277,543476.2961836215,553330.330947677,TASK2
2026-04-28T10:56:53.279+00:00,1195,85558,150384.63775928467,106482.30242518215,552631.3471950707,200502.38972930785,143485.52596396516,158149.49967259166,543481.1241604239,553317.2551771706,TASK2
2026-04-28T10:56:53.279+00:00,1195,85559,150386.78352675238,106482.57064611562,552615.3209942962,200501.11567987388,143489.5492779671,158153.79120752707,543484.074590692,553300.9607554628,TASK2
2026-04-28T10:56:53.279+00:00,1195,85560,150386.58236105228,106481.0283757482,552599.5630144553,200499.57340950647,143490.89038263445,158156.74163779517,543487.2932418935,553285.2027756218,TASK2
2026-04-28T10:56:53.279+00:00,1195,85561,150384.77186975142,106478.14500071347,552590.5105579508,200495.88537167135,143496.52302223718,158163.44716113177,543490.5118930951,553276.1503191174,TASK2
2026-04-28T10:56:53.279+00:00,1195,85562,150386.11297441873,106479.35199491406,552586.3531334822,200494.54426700404,143495.71835943678,158172.49961763615,543494.3340413969,553271.7917289486,TASK2
2026-04-28T10:56:53.279+00:00,1195,85563,150389.86806748723,106481.2295414483,552575.15490951,200493.27021757007,143498.93701063836,158178.9369200393,543495.9433669976,553260.5935049765,TASK2
2026-04-28T10:56:53.279+00:00,1195,85564,150393.62316055573,106483.91175078294,552559.933371536,200491.45972626918,143502.1556618399,158189.66575737784,543494.1328756968,553245.3719670024,TASK2
2026-04-28T10:56:53.279+00:00,1195,85565,150394.69604428957,106486.59396011758,552543.3707288946,200487.23524656714,143503.49676650722,158197.17594351483,543493.9317099967,553229.0775452945,TASK2
2026-04-28T10:56:53.279+00:00,1195,85566,150394.49487858947,106485.05168975015,552532.1725049225,200482.2061040647,143501.4180542729,158210.31876925455,543496.0774774645,553218.4157631893,TASK2
2026-04-28T10:56:53.279+00:00,1195,85567,150393.48905008897,106484.04586124967,552522.8518274847,200478.51806622956,143501.2168885728,158224.26625779466,543500.9054542668,553208.826864818,TASK2
2026-04-28T10:56:53.279+00:00,1195,85568,150394.0254919559,106485.11874498353,552512.1900453795,200477.5122377291,143503.09443510702,158238.21374633475,543506.806314803,553197.3604199124,TASK2
2026-04-28T10:56:53.279+00:00,1195,85569,150395.90303849016,106484.3811374165,552496.9685074054,200475.16530456126,143511.4092840444,158250.5519092741,543510.5614078714,553181.8706610049,TASK2
2026-04-28T10:56:53.279+00:00,1195,85570,150396.70770129055,106482.83886704908,552481.4787484979,200473.08659232693,143516.7737027137,158264.76761874766,543514.5847218734,553166.9173439643,TASK2
2026-04-28T10:56:53.279+00:00,1195,85571,150396.23831465698,106481.83303854859,552469.7440826588,200469.66677542528,143516.7737027137,158276.03289795315,543519.6809196093,553155.1826781252,TASK2
2026-04-28T10:56:53.279+00:00,1195,85572,150396.50653559045,106484.51524788323,552459.8869633541,200468.6609469248,143521.60167951602,158288.37106089247,543521.0220242765,553145.3255588205,TASK2
2026-04-28T10:56:53.279+00:00,1195,85573,150399.18874492508,106486.9292362844,552449.2251812489,200467.92333935775,143523.74744698373,158306.07364250108,543519.7479748426,553134.1273348484,TASK2
2026-04-28T10:56:53.279+00:00,1195,85574,150404.01672172744,106486.9292362844,552435.6129688756,200465.03996432302,143528.30720285262,158324.84910784353,543520.2844167096,553119.9786806081,TASK2
2026-04-28T10:56:53.279+00:00,1195,85575,150406.4307101286,106486.19162871738,552422.2689774358,200460.5472636875,143531.25763312072,158341.2105847848,543519.2785882091,553106.9029101018,TASK2
2026-04-28T10:56:53.279+00:00,1195,85576,150405.4248816281,106484.64935834997,552453.114384784,200453.6405746508,143532.8669587215,158354.35341052452,543513.4447829062,553145.2585035871,TASK2
2026-04-28T10:56:53.279+00:00,1195,85577,150404.95549499456,106483.10708798254,552577.8371188446,200449.41609494877,143531.86113022102,158364.54580599617,543507.3427566699,553268.6401329804,TASK2
2026-04-28T10:56:53.279+00:00,1195,85578,150404.75432929446,106481.83303854859,552605.7320959249,200447.06916178096,143530.05063892013,158375.81108520163,543504.1911607017,553290.9024704578,TASK2
2026-04-28T10:56:53.279+00:00,1195,85579,150403.4802798605,106481.36365191503,552590.2423370173,200444.45400767968,143529.31303135311,158388.68569000787,543499.4302391327,553275.1444906169,TASK2
2026-04-28T10:56:53.279+00:00,1195,85580,150403.01089322695,106483.24119844928,552573.9479153095,200441.30241171148,143526.42965631836,158399.68274827988,543496.010422231,553259.1182898424,TASK2
2026-04-28T10:56:53.279+00:00,1195,85581,150401.46862285954,106483.7776403162,552560.872144803,200437.07793200944,143527.23431911875,158405.5836088161,543494.1999309302,553246.0425193361,TASK2
2026-04-28T10:56:53.279+00:00,1195,85582,150399.65813155865,106484.5823031166,552551.5514673652,200434.99921977508,143528.03898191915,158411.75269028576,543489.9754512281,553236.7218418982,TASK2
2026-04-28T10:56:53.279+00:00,1195,85583,150398.92052399163,106487.5327333847,552540.0850224596,200433.45694940767,143524.08272315055,158422.4815276243,543481.9958784576,553224.9871760592,TASK2
2026-04-28T10:56:53.279+00:00,1195,85584,150399.725186792,106487.5327333847,552524.8634844855,200432.9875627741,143527.03315341866,158431.86926029553,543474.016305687,553209.4974171517,TASK2
2026-04-28T10:56:53.279+00:00,1195,85585,150399.25580015845,106487.06334675114,552511.5194930458,200434.32866744144,143527.5695952856,158440.72055109983,543468.1825003842,553196.1534257118,TASK2
2026-04-28T10:56:53.279+00:00,1195,85586,150396.3724251237,106487.3315676846,552500.8577109406,200435.40155117528,143528.64247901944,158451.71760937184,543466.1037881499,553185.4916436067,TASK2
2026-04-28T10:56:53.279+00:00,1195,85587,150392.14794542166,106487.59978861806,552491.2688125693,200434.3957226748,143528.64247901944,158463.51933044425,543463.2204131151,553175.9027452354,TASK2
2026-04-28T10:56:53.279+00:00,1195,85588,150392.68438728858,106489.20911421884,552479.8023676637,200432.58523137393,143530.78824648715,158474.51638871626,543453.3632938103,553164.7045212633,TASK2
2026-04-28T10:56:53.279+00:00,1195,85589,150395.36659662324,106492.15954448695,552465.6537134235,200430.50651913957,143534.27511862217,158484.4405632544,543440.5557442375,553150.2876460896,TASK2
2026-04-28T10:56:53.279+00:00,1195,85590,150396.975922224,106491.69015785339,552452.0415010502,200427.62314410484,143537.22554889027,158491.146086591,543434.7219389346,553136.6754337163,TASK2
2026-04-28T10:56:53.279+00:00,1195,85591,150396.23831465698,106489.8796665525,552442.7208236123,200425.27621093704,143538.03021169067,158498.92449366147,543432.6432267003,553127.3547562783,TASK2
2026-04-28T10:56:53.279+00:00,1195,85592,150394.69604428957,106488.87383805201,552436.0823555092,200425.07504523694,143537.56082505712,158513.14020313503,543433.4478895006,553120.7162881752,TASK2
2026-04-28T10:56:53.279+00:00,1195,85593,150396.975922224,106492.36071018704,552427.633396105,200427.4890336381,143538.63370879096,158532.25094464433,543435.5936569683,553113.1390468049,TASK2
2026-04-28T10:56:53.279+00:00,1195,85594,150396.7747565239,106494.77469858821,552415.0940674656,200427.01964700455,143543.72990652677,158548.07597971868,543426.8094213974,553100.5997181654,TASK2
2026-04-28T10:56:53.279+00:00,1195,85595,150395.76892802343,106495.31114045515,552403.8958434935,200423.59983010287,143545.33923212756,158559.87770079108,543411.8561043568,553089.4014941932,TASK2
2026-04-28T10:56:53.279+00:00,1195,85596,150394.226657656,106496.65224512246,552395.916270723,200419.37535040083,143540.84653149205,158572.48408466388,543402.2672059855,553081.4219214227,TASK2
2026-04-28T10:56:53.279+00:00,1195,85597,150394.76309952294,106497.99334978977,552387.1320351519,200418.90596376726,143541.38297335897,158582.94470106895,543396.1651797493,553072.6376858518,TASK2
2026-04-28T10:56:53.279+00:00,1195,85598,150395.56776232334,106499.06623352364,552377.8113577141,200421.05173123497,143543.79696176015,158592.06421280673,543387.1127232448,553062.780566547,TASK2
2026-04-28T10:56:53.279+00:00,1195,85599,150397.1770879241,106499.3344544571,552365.8084709416,200420.04590273448,143546.74739202825,158602.25660827835,543375.1098364723,553051.045900708,TASK2
2026-04-28T10:56:53.279+00:00,1195,85600,150396.43948035708,106498.86506782354,552354.0738051026,200418.23541143362,143543.59579606005,158610.5714572157,543364.9844962341,553039.5794558024,TASK2
2026-04-28T10:56:53.279+00:00,1195,85601,150396.23831465698,106497.85923932305,552344.4849067313,200417.22958293313,143542.32174662608,158619.42274802,543358.8824699977,553029.7223364976,TASK2
2026-04-28T10:56:53.697+00:00,1196,85602,150396.7747565239,106497.65807362295,552337.3099967611,200418.30246666697,143543.93107222687,158629.61514349162,543357.8766414972,553022.5474265275,TASK2
2026-04-28T10:56:53.697+00:00,1196,85603,150396.5735908238,106498.46273642335,552329.598644924,200421.78933880202,143548.49082809576,158639.27109709632,543357.8766414972,553015.1042956238,TASK2
2026-04-28T10:56:53.697+00:00,1196,85604,150395.83598325678,106500.60850389105,552317.3275372181,200425.27621093704,143548.49082809576,158647.31772510023,543352.5792780614,553003.1014088513,TASK2
2026-04-28T10:56:53.697+00:00,1196,85605,150393.75727102245,106501.41316669145,552305.8610923125,200426.88553653783,143548.49082809576,158650.80459723526,543348.6230192927,552992.1714058127,TASK2
2026-04-28T10:56:53.697+00:00,1196,85606,150388.19168665307,106499.3344544571,552389.5460235531,200422.92927776923,143543.46168559333,158653.75502750336,543346.0078651914,553088.1944999926,TASK2
2026-04-28T10:56:53.697+00:00,1196,85607,150381.82143948332,106494.57353288811,552679.4928526274,200421.65522833526,143537.09143842355,158655.63257403762,543346.0078651914,553377.6048872,TASK2
2026-04-28T10:56:53.697+00:00,1196,85608,150379.20628538204,106487.93506478489,552766.6646560031,200423.53277486953,143534.47628432227,158656.70545777146,543347.8854117257,553453.2431904367,TASK2
2026-04-28T10:56:53.697+00:00,1196,85609,150377.93223594807,106481.56481761513,552748.492687761,200421.45406263517,143531.05646742063,158659.65588803956,543345.2702576244,553434.5347803277,TASK2
2026-04-28T10:56:53.697+00:00,1196,85610,150376.65818651413,106477.87677978001,552730.0524985853,200415.8884782658,143527.63665051895,158662.33809737422,543343.4597663236,553416.094591152,TASK2
2026-04-28T10:56:53.697+00:00,1196,85611,150373.50659054593,106475.26162567873,552715.3674024781,200409.25001016256,143525.82615921806,158665.28852764232,543342.1857168897,553401.9459369119,TASK2
2026-04-28T10:56:53.697+00:00,1196,85612,150369.2821108439,106473.98757624478,552702.8280738387,200404.22086766013,143524.0156679172,158669.84828351118,543344.5997052909,553389.4066082725,TASK2
2026-04-28T10:56:53.697+00:00,1196,85613,150370.08677364426,106474.25579717824,552690.2887451993,200402.41037635924,143522.20517661632,158674.67626031354,543355.3285426294,553376.5990586996,TASK2
2026-04-28T10:56:53.697+00:00,1196,85614,150373.50659054593,106476.40156464596,552675.0001519918,200401.47160309213,143528.44131331934,158683.5946063512,543366.4597113681,553360.6399131584,TASK2
2026-04-28T10:56:53.697+00:00,1196,85615,150373.7748114794,106476.40156464596,552661.3879396186,200400.46577459163,143529.78241798666,158691.1047924882,543370.7512463036,553346.7594798517,TASK2
2026-04-28T10:56:53.697+00:00,1196,85616,150373.03720391236,106477.20622744634,552648.8486109792,200398.3870623573,143521.53462428265,158698.88319955862,543373.1652347047,553333.9519302788,TASK2
2026-04-28T10:56:53.697+00:00,1196,85617,150372.0313754119,106478.27911118019,552636.8457242067,200394.96724545563,143519.18769111484,158708.53915316332,543372.9640690046,553322.4854853732,TASK2
2026-04-28T10:56:53.697+00:00,1196,85618,150374.44536381305,106479.35199491406,552625.3792793012,200393.42497508822,143519.45591204832,158717.92688583455,543367.9349265022,553310.7508195342,TASK2
2026-04-28T10:56:53.697+00:00,1196,85619,150378.46867781502,106480.42487864791,552609.6212994601,200390.5416000535,143519.99235391524,158727.31461850577,543360.223574665,553295.2610606266,TASK2
2026-04-28T10:56:53.697+00:00,1196,85620,150381.15088714965,106481.2295414483,552595.2044242865,200386.85356221837,143521.0652376491,158734.28836277584,543355.7308740296,553280.844185453,TASK2
2026-04-28T10:56:53.697+00:00,1196,85621,150378.80395398184,106481.49776238177,552641.6066457756,200381.287977849,143520.0594091486,158739.11633957818,543346.6784175251,553335.8294768131,TASK2
2026-04-28T10:56:53.697+00:00,1196,85622,150376.18879988056,106481.0283757482,552788.3234963802,200381.55619878246,143516.10315038002,158741.79854891283,543340.5763912889,553478.7912343491,TASK2
2026-04-28T10:56:53.697+00:00,1196,85623,150374.91475044662,106478.68144258039,552807.3671826562,200383.16552438322,143513.48799627874,158746.62652571517,543336.0836906533,553492.4705019558,TASK2
2026-04-28T10:56:53.697+00:00,1196,85624,150373.3724800792,106477.13917221298,552789.195214414,200381.6232540158,143511.94572591133,158751.72272345098,543325.4219085481,553474.5667546472,TASK2
2026-04-28T10:56:53.697+00:00,1196,85625,150370.75732597793,106475.59690184557,552771.8279089723,200379.81276271495,143508.79412994313,158755.74603745292,543314.223684576,553457.4676701388,TASK2
2026-04-28T10:56:53.697+00:00,1196,85626,150368.14217187665,106475.86512277903,552756.6063709982,200378.2704923475,143507.2518595757,158759.7693514549,543303.2936815374,553442.5143530982,TASK2
2026-04-28T10:56:53.697+00:00,1196,85627,150366.3316805758,106478.01089024673,552743.5306004919,200379.8798179483,143498.46762400478,158767.54775852532,543301.2149693031,553429.4385825918,TASK2
2026-04-28T10:56:53.697+00:00,1196,85628,150367.1363433762,106477.80972454663,552729.6501671851,200382.56202728293,143497.73001643777,158775.8626074627,543320.5268765124,553415.8263702185,TASK2
2026-04-28T10:56:53.697+00:00,1196,85629,150366.9351776761,106478.0779454801,552712.0146408099,200386.5853412849,143497.2606298042,158785.5185610674,543345.2032023912,553398.1908438434,TASK2
2026-04-28T10:56:53.697+00:00,1196,85630,150364.05180264133,106477.34033791308,552694.9155563016,200389.26755061952,143494.6454757029,158793.56518907132,543365.8562142678,553380.5553174681,TASK2
2026-04-28T10:56:53.697+00:00,1196,85631,150362.24131134045,106477.13917221298,552681.0351229948,200388.5299430525,143492.56676346858,158798.92960774057,543384.3634586768,553366.6748841613,TASK2
2026-04-28T10:56:53.697+00:00,1196,85632,150362.50953227392,106477.67561407991,552669.5686780893,200388.5299430525,143493.37142626898,158804.56224734333,543399.6520518842,553355.4766601892,TASK2
2026-04-28T10:56:53.697+00:00,1196,85633,150364.1188578747,106480.62604434801,552656.4929075829,200389.87104771982,143496.0536356036,158815.29108468187,543409.0397845554,553342.6691106163,TASK2
2026-04-28T10:56:53.697+00:00,1196,85634,150365.7281834755,106483.04003274918,552641.2713696088,200390.1392686533,143500.6133914725,158824.6788173531,543415.4770869586,553327.1793517089,TASK2
2026-04-28T10:56:53.697+00:00,1196,85635,150363.64947124114,106485.72224208382,552624.7087269675,200389.40166108627,143500.6133914725,158830.84789882277,543423.255494029,553310.8849300009,TASK2
2026-04-28T10:56:53.697+00:00,1196,85636,150360.2296543395,106487.59978861806,552613.7787239288,200386.25006511807,143500.14400483892,158838.35808495973,543436.6665407022,553300.2231478958,TASK2
2026-04-28T10:56:53.697+00:00,1196,85637,150358.4191630386,106488.40445141845,552605.7991511583,200382.29380634948,143503.3626560405,158846.67293389712,543451.9551339096,553292.2435751252,TASK2
2026-04-28T10:56:53.697+00:00,1196,85638,150358.4191630386,106488.67267235191,552593.7962643858,200379.14221038128,143503.63087697397,158853.91489910064,543461.3428665809,553280.5089092861,TASK2
2026-04-28T10:56:53.697+00:00,1196,85639,150361.50370377343,106491.62310262001,552579.0441130452,200377.39877431377,143497.7970716711,158862.09563757127,543469.791825985,553265.0191503786,TASK2
2026-04-28T10:56:53.697+00:00,1196,85640,150360.49787527294,106490.885495053,552562.2132494705,200370.76030621055,143497.0594641041,158862.36385850474,543477.8384539889,553248.4565077373,TASK2
2026-04-28T10:56:53.697+00:00,1196,85641,150358.4191630386,106490.41610841943,552549.673920831,200363.85361717385,143496.858298404,158865.04606783937,543485.6168610593,553235.6489581644,TASK2
2026-04-28T10:56:53.697+00:00,1196,85642,150356.8768926712,106489.94672178588,552539.0121387258,200358.8244746714,143499.8087286721,158873.89735864368,543496.0774774645,553225.2553969927,TASK2
2026-04-28T10:56:53.697+00:00,1196,85643,150356.6757269711,106489.94672178588,552527.2774728867,200356.47754150358,143501.4180542729,158884.62619598224,543506.806314803,553213.788952087,TASK2
2026-04-28T10:56:53.697+00:00,1196,85644,150357.74861070493,106490.4831636528,552512.3241558461,200352.52128273502,143502.22271707328,158895.62325425426,543508.9520822706,553198.2991931796,TASK2
2026-04-28T10:56:53.697+00:00,1196,85645,150358.55327350533,106489.74555608578,552497.9072806725,200344.273489031,143502.02155137318,158903.13344039122,543510.0249660045,553183.8823180059,TASK2
2026-04-28T10:56:53.697+00:00,1196,85646,150357.54744500484,106489.00794851875,552485.9043939,200337.90324186123,143503.09443510702,158909.83896372782,543516.9987102746,553171.8794312334,TASK2
2026-04-28T10:56:53.697+00:00,1196,85647,150356.54161650437,106488.80678281865,552476.5837164621,200334.4834249596,143504.43553977436,158917.08092893133,543530.4097569478,553162.5587537955,TASK2
2026-04-28T10:56:53.697+00:00,1196,85648,150356.34045080427,106488.80678281865,552466.1901552904,200334.2822592595,143507.38597004244,158926.46866160256,543543.820803621,553152.1651926237,TASK2
2026-04-28T10:56:53.697+00:00,1196,85649,150356.8768926712,106490.41610841943,552452.5779429171,200334.55048019293,143507.6541909759,158934.78351053994,543553.4767572257,553138.5529802504,TASK2
2026-04-28T10:56:53.697+00:00,1196,85650,150357.6815554716,106488.87383805201,552438.6975096104,200330.86244235781,143505.3072578081,158940.9525920096,543558.0365130946,553125.2089888107,TASK2
2026-04-28T10:56:53.697+00:00,1196,85651,150355.8710641707,106484.3811374165,552440.3068352111,200325.29685798843,143505.3072578081,158945.78056881196,543560.7187224291,553130.036965613,TASK2
2026-04-28T10:56:53.697+00:00,1196,85652,150354.8652356702,106482.83886704908,552479.4670914969,200324.29102948797,143504.5696502411,158954.3636386828,543567.1560248323,553167.8561172314,TASK2
2026-04-28T10:56:53.697+00:00,1196,85653,150354.6640699701,106483.10708798254,552482.417521765,200324.55925042141,143505.64253397493,158963.2149294871,543572.5204435015,553168.9290009652,TASK2
2026-04-28T10:56:53.697+00:00,1196,85654,150354.19468333654,106482.63770134898,552467.7324256578,200322.74875912053,143502.7591589402,158966.7018016221,543575.7390947031,553153.9756839246,TASK2
2026-04-28T10:56:53.697+00:00,1196,85655,150352.1159711022,106482.43653564889,552454.1202132845,200318.5242794185,143495.8524699035,158968.57934815637,543581.9081761728,553140.3634715513,TASK2
2026-04-28T10:56:53.697+00:00,1196,85656,150350.5737007348,106481.96714901533,552443.4584311794,200313.22691598258,143491.09154833455,158970.99333655753,543584.858606441,553129.4334685127,TASK2
2026-04-28T10:56:53.697+00:00,1196,85657,150348.7632094339,106481.96714901533,552434.9424165419,200308.73421534707,143489.01283610018,158975.55309242642,543585.6632692413,553120.9174538753,TASK2
2026-04-28T10:56:53.697+00:00,1196,85658,150349.03143036738,106483.5764746161,552424.0124135033,200305.04617751195,143490.3539407675,158980.9175110957,543584.9256616742,553110.5238927036,TASK2
2026-04-28T10:56:53.697+00:00,1196,85659,150350.10431410122,106483.10708798254,552410.6684220635,200300.82169780988,143489.88455413395,158988.15947629922,543578.823635438,553097.4481221972,TASK2
2026-04-28T10:56:53.697+00:00,1196,85660,150348.83026466728,106481.83303854859,552398.129093424,200295.52433437397,143487.53762096615,158995.6696624362,543572.1851673347,553085.1770144912,TASK2
2026-04-28T10:56:53.697+00:00,1196,85661,150346.48333149948,106481.63187284849,552388.8084159861,200290.22697093806,143485.72712966526,159000.22941830507,543567.1560248323,553075.5881161198,TASK2
2026-04-28T10:56:53.697+00:00,1196,85662,150344.40461926511,106480.62604434801,552381.0970641491,200285.73427030255,143485.52596396516,159001.03408110546,543568.2289085662,553067.8767642828,TASK2
2026-04-28T10:56:53.697+00:00,1196,85663,150346.0139448659,106480.42487864791,552372.0446076447,200282.58267433435,143489.28105703366,159003.44806950664,543569.0335713666,553058.556086845,TASK2
2026-04-28T10:56:53.697+00:00,1196,85664,150347.08682859977,106480.42487864791,552358.9688371383,200279.69929929962,143491.42682450137,159007.4713835086,543569.838234167,553045.4803163386,TASK2
2026-04-28T10:56:53.697+00:00,1196,85665,150346.34922103272,106479.41905014742,552345.6248456985,200275.47481959756,143491.9632663683,159012.03113937748,543567.2230800657,553032.4045458322,TASK2
2026-04-28T10:56:53.697+00:00,1196,85666,150346.48333149948,106480.89426528147,552341.5344764632,200275.34070913083,143494.57842046957,159019.60838074784,543568.3630190329,553027.57656903,TASK2
2026-04-28T10:56:53.697+00:00,1196,85667,150345.74572393246,106482.23536994879,552339.9922060957,200275.87715099775,143495.38308326996,159021.75414821555,543577.4825307707,553025.7660777291,TASK2
2026-04-28T10:56:53.697+00:00,1196,85668,150345.27633729888,106482.50359088225,552332.0126333252,200277.75469753201,143493.3043710356,159026.58212501789,543589.0160309096,553018.0547258919,TASK2
2026-04-28T10:56:53.697+00:00,1196,85669,150345.54455823236,106480.42487864791,552320.5461884197,200279.3640231328,143491.4938797347,159031.94654368717,543594.1122286454,553006.3200600529,TASK2
2026-04-28T10:56:53.697+00:00,1196,85670,150345.0751715988,106477.80972454663,552307.7386388468,200279.63224406625,143491.7621006682,159034.89697395527,543592.8381792115,552993.7807314135,TASK2
2026-04-28T10:56:53.697+00:00,1196,85671,150342.99645936445,106477.80972454663,552299.4908451427,200279.1628574327,143490.48805123425,159034.89697395527,543592.8381792115,552985.264716776,TASK2
2026-04-28T10:56:53.697+00:00,1196,85672,150342.2588517974,106478.61438734703,552293.120597973,200278.42524986566,143495.0478071031,159036.23807862258,543600.6165862819,552978.6262486727,TASK2
2026-04-28T10:56:53.697+00:00,1196,85673,150341.5212442304,106477.60855884654,552283.7999205351,200280.57101733336,143496.92535363737,159038.3838460903,543608.9314352192,552969.8420131018,TASK2
2026-04-28T10:56:53.697+00:00,1196,85674,150341.05185759682,106476.33450941258,552272.0652546961,200284.05788946841,143492.7008739353,159041.60249729184,543614.8322957555,552957.8391263293,TASK2
2026-04-28T10:56:53.697+00:00,1196,85675,150338.97314536248,106475.59690184557,552260.5988097904,200285.93543600265,143489.01283610018,159044.8211484934,543618.0509469571,552946.6409023572,TASK2
2026-04-28T10:56:53.697+00:00,1196,85676,150333.67578192658,106475.59690184557,552252.8874579534,200285.46604936908,143484.52013546467,159049.3809043623,543621.537819092,552938.9295505201,TASK2
2026-04-28T10:56:53.697+00:00,1196,85677,150331.59706969224,106474.05463147815,552246.7854317172,200283.11911620127,143487.73878666625,159049.91734622922,543627.9751214952,552932.5593033504,TASK2
2026-04-28T10:56:53.697+00:00,1196,85678,150331.12768305867,106472.24414017727,552238.5376380131,200281.84506676733,143492.2985425351,159052.3313346304,543633.8759820313,552924.8479515134,TASK2
2026-04-28T10:56:53.697+00:00,1196,85679,150329.3171917578,106470.70186980985,552228.4122977748,200279.76635453297,143491.82915590156,159055.54998583195,543641.6543891018,552914.1861694081,TASK2
2026-04-28T10:56:53.697+00:00,1196,85680,150326.97025858998,106468.62315757551,552218.2869575366,200274.46899109706,143491.62799020146,159056.35464863235,543648.0916915049,552904.0608291699,TASK2
2026-04-28T10:56:53.697+00:00,1196,85681,150321.67289515407,106466.2762244077,552265.7620627597,200264.6118717923,143487.13528956595,159057.42753236622,543653.4561101742,552959.8507833303,TASK2
2026-04-28T10:56:53.697+00:00,1196,85682,150316.9119735851,106461.78352377219,552432.3272624406,200258.509845556,143480.76504239617,159060.10974170084,543655.3336567085,553124.8066574105,TASK2
2026-04-28T10:56:53.697+00:00,1196,85683,150313.7603776169,106458.36370687051,552473.096844327,200255.8946914547,143477.88166736145,159062.79195103547,543657.2112032428,553158.8707159604,TASK2
2026-04-28T10:56:53.697+00:00,1196,85684,150312.75454911642,106456.8214365031,552458.6799691535,200253.5477582869,143468.56098992357,159064.93771850318,543654.8642700749,553144.4538407867,TASK2
2026-04-28T10:56:53.697+00:00,1196,85685,150310.94405781553,106453.13339866798,552444.7995358467,200249.8597204518,143460.8496380865,159066.54704410397,543651.1762322398,553130.3051865465,TASK2
2026-04-28T10:56:53.697+00:00,1196,85686,150309.13356651465,106448.372477099,552434.9424165419,200244.02591514896,143458.23448398523,159067.35170690436,543652.5173369071,553120.1798463082,TASK2
2026-04-28T10:56:53.697+00:00,1196,85687,150307.32307521376,106445.48910206427,552427.7675065717,200241.41076104768,143456.9604345513,159068.69281157167,543659.7593021106,553113.004936338,TASK2
2026-04-28T10:56:53.697+00:00,1196,85688,150306.85368858022,106446.02554393119,552418.7150500673,200243.02008664847,143457.4968764182,159068.69281157167,543670.4881394492,553103.9524798337,TASK2
2026-04-28T10:56:53.697+00:00,1196,85689,150308.19479324753,106446.83020673158,552407.2486051618,200244.8976331827,143458.83798108553,159072.44790464017,543678.5347674531,553092.7542558616,TASK2
2026-04-28T10:56:53.697+00:00,1196,85690,150307.99362754743,106446.36082009802,552395.7821602562,200244.16002561568,143455.41816418385,159074.32545117443,543686.3131745235,553081.287810956,TASK2
2026-04-28T10:56:53.697+00:00,1196,85691,150306.18313624655,106445.08677066407,552385.656820018,200243.1541971152,143450.92546354834,159077.54410237598,543695.4326862613,553071.4306916512,TASK2
2026-04-28T10:56:53.697+00:00,1196,85692,150305.44552867953,106444.08094216358,552378.7501309812,200240.5390430139,143447.5056466467,159085.05428851297,543708.575512001,553064.255781681,TASK2
2026-04-28T10:56:53.697+00:00,1196,85693,150305.713749613,106444.34916309704,552371.5752210111,200238.72855171305,143447.03626001312,159092.2962537165,543720.3772330735,553057.0808717109,TASK2
2026-04-28T10:56:53.697+00:00,1196,85694,150307.05485428032,106446.76315149822,552359.8405551721,200240.60609824728,143448.109143747,159099.00177705308,543726.0098726761,553045.3462058719,TASK2
2026-04-28T10:56:53.697+00:00,1196,85695,150307.59129614723,106447.03137243168,552348.1058893331,200240.60609824728,143448.37736468043,159105.4390794562,543728.1556401439,553033.3433190994,TASK2
2026-04-28T10:56:53.697+00:00,1196,85696,150306.3172467133,106447.03137243168,552341.4674212298,200237.18628134564,143443.08000124453,159110.26705625854,543734.8611634804,553026.7048509961,TASK2
2026-04-28T10:56:53.697+00:00,1196,85697,150307.39013044714,106448.372477099,552337.7123281613,200235.6440109782,143447.1033152465,159114.42448072723,543749.4121491208,553023.553255028,TASK2
2026-04-28T10:56:53.697+00:00,1196,85698,150309.26767698137,106448.64069803247,552328.9280925904,200233.83351967734,143450.59018738152,159113.68687316022,543756.385893391,553014.5007985235,TASK2
2026-04-28T10:56:53.697+00:00,1196,85699,150309.0665112813,106449.71358176632,552317.7298686183,200232.02302837645,143451.3948501819,159116.9055243618,543758.5316608587,553003.3025745514,TASK2
2026-04-28T10:56:53.697+00:00,1196,85700,150308.0606827808,106448.70775326583,552307.3363074466,200229.40787427517,143450.92546354834,159119.0512918295,543763.8960795279,552993.1772343132,TASK2
2026-04-28T10:56:53.697+00:00,1196,85701,150306.25019147992,106447.70192476534,552299.356734676,200225.71983644005,143450.92546354834,159118.8501261294,543772.4791493987,552985.4658824761,TASK2
2026-04-28T10:56:54.016+00:00,1197,85702,150305.24436297943,106447.50075906524,552292.7182665728,200223.64112420572,143452.8030100826,159122.6052191979,543778.6482308684,552978.8274143728,TASK2
2026-04-28T10:56:54.016+00:00,1197,85703,150307.39013044714,106448.57364279909,552285.2751356692,200222.63529570523,143451.7971815821,159129.31074253446,543778.6482308684,552971.1160625358,TASK2
2026-04-28T10:56:54.016+00:00,1197,85704,150309.80411884832,106448.372477099,552273.2722488967,200219.75192067047,143451.32779494853,159134.94338213722,543771.7415418318,552959.1131757633,TASK2
2026-04-28T10:56:54.016+00:00,1197,85705,150309.60295314822,106447.90309046544,552263.4151295918,200215.7956619019,143449.51730364765,159141.6489054738,543764.0301899946,552949.2560564585,TASK2
2026-04-28T10:56:54.016+00:00,1197,85706,150306.98779904694,106446.89726196494,552255.7037777548,200211.83940313332,143448.2432542137,159146.7451032096,543757.6599428249,552941.5447046214,TASK2
2026-04-28T10:56:54.016+00:00,1197,85707,150307.79246184733,106446.42787533138,552250.1381933854,200208.1513652982,143450.38902168142,159152.37774281236,543753.1672421894,552935.7108993186,TASK2
2026-04-28T10:56:54.016+00:00,1197,85708,150310.20645024852,106446.96431719832,552244.3043880826,200204.1951065296,143454.1441147499,159159.88792894932,543748.4063206203,552929.6088730823,TASK2
2026-04-28T10:56:54.016+00:00,1197,85709,150311.0111130489,106448.30542186563,552233.9108269109,200199.7024058941,143452.33362344903,159168.47099882018,543738.5492013156,552919.2153119106,TASK2
2026-04-28T10:56:54.016+00:00,1197,85710,150312.88865958314,106447.29959336514,552224.3219285395,200194.40504245818,143451.596015882,159172.49431282212,543731.6425122789,552910.4310763397,TASK2
2026-04-28T10:56:54.016+00:00,1197,85711,150310.27350548186,106443.34333459656,552311.4937319153,200186.6936906211,143450.32196644804,159173.567196556,543727.9544744438,553010.7457054551,TASK2
2026-04-28T10:56:54.016+00:00,1197,85712,150304.7079211125,106436.9730874268,552614.0469448622,200184.61497838673,143442.07417274403,159173.3660308559,543730.1002419115,553312.4942556017,TASK2
2026-04-28T10:56:54.016+00:00,1197,85713,150301.28810421083,106427.65240998894,552707.1196087742,200186.492524921,143437.0450302416,159172.09198142192,543733.85533498,553393.7651984412,TASK2
2026-04-28T10:56:54.016+00:00,1197,85714,150297.8682873092,106421.0139418857,552692.1662917336,200184.6820336201,143427.1879109368,159171.89081572182,543730.9719599453,553378.0072186003,TASK2
2026-04-28T10:56:54.016+00:00,1197,85715,150294.98491227443,106417.59412498404,552676.9447537595,200180.45755391807,143417.33079163203,159171.1532081548,543728.6250267774,553363.0539015596,TASK2
2026-04-28T10:56:54.016+00:00,1197,85716,150291.29687443931,106414.17430808238,552664.1372041866,200176.76951608292,143411.49698632918,159170.68382152123,543725.4734308092,553350.2463519867,TASK2
2026-04-28T10:56:54.016+00:00,1197,85717,150288.9499412715,106414.44252901584,552652.670759281,200176.0319085159,143410.75937876216,159173.09780992242,543715.6163115044,553338.7799070812,TASK2
2026-04-28T10:56:54.016+00:00,1197,85718,150289.5534383718,106416.52124125019,552641.4054800755,200180.05522251787,143413.37453286344,159178.79750475852,543703.8816456654,553327.3134621755,TASK2
2026-04-28T10:56:54.016+00:00,1197,85719,150290.3581011722,106415.5154127497,552626.7203839684,200179.5858358843,143415.25207939767,159178.79750475852,543690.0012123587,553312.8965870019,TASK2
2026-04-28T10:56:54.016+00:00,1197,85720,150288.27938893784,106414.50958424922,552612.0352878612,200174.8249143153,143414.78269276413,159174.304804123,543677.1936627858,553298.2114908948,TASK2
2026-04-28T10:56:54.016+00:00,1197,85721,150285.12779296967,106413.23553481526,552600.5688429557,200171.1368764802,143404.12091065894,159173.2989756225,543671.359857483,553286.2086041223,TASK2
2026-04-28T10:56:54.016+00:00,1197,85722,150283.58552260222,106413.23553481526,552590.7117236509,200168.52172237894,143403.91974495884,159174.1036384229,543671.8962993498,553276.3514848175,TASK2
2026-04-28T10:56:54.016+00:00,1197,85723,150282.8479150352,106416.72240695028,552580.8546043461,200166.71123107805,143407.67483802733,159177.054068691,543668.7447033817,553266.7625864461,TASK2
2026-04-28T10:56:54.016+00:00,1197,85724,150282.1103074682,106418.59995348453,552566.7059501059,200165.16896071064,143408.47950082773,159180.0044989591,543665.32488648,553252.613932206,TASK2
2026-04-28T10:56:54.016+00:00,1197,85725,150281.9091417681,106419.40461628493,552552.0208539988,200164.69957407707,143409.55238456157,159182.9549292272,543662.1732905118,553238.4652779658,TASK2
2026-04-28T10:56:54.016+00:00,1197,85726,150280.0986504672,106417.32590405058,552609.42013376,200159.67043157463,143406.9372304603,159185.3689176284,543655.8030433421,553305.2522903982,TASK2
2026-04-28T10:56:54.016+00:00,1197,85727,150276.67883356556,106412.02854061467,552784.0319614449,200156.78705653988,143403.51741355864,159185.63713856184,543657.9488108098,553476.1090250146,TASK2
2026-04-28T10:56:54.016+00:00,1197,85728,150275.13656319812,106407.26761904568,552808.976508257,200156.31766990633,143401.17048039084,159185.1677519283,543661.7039038782,553495.1527112905,TASK2
2026-04-28T10:56:54.016+00:00,1197,85729,150275.67300506507,106403.57958121056,552790.8045400148,200153.70251580505,143399.09176815648,159185.70419379522,543658.55230791,553476.9807430482,TASK2
2026-04-28T10:56:54.016+00:00,1197,85730,150273.5942928307,106402.30553177661,552773.4372345731,200147.06404770183,143395.9401721883,159186.5088565956,543659.625191644,553459.88165854,TASK2
2026-04-28T10:56:54.016+00:00,1197,85731,150270.71091779598,106401.83614514305,552759.8250221998,200139.0844749313,143393.32501808702,159185.7712490286,543665.7942731136,553445.7330042998,TASK2
2026-04-28T10:56:54.016+00:00,1197,85732,150267.82754276125,106400.29387477563,552747.2856935604,200132.44600682805,143395.47078555473,159186.57591182896,543671.9633545832,553433.1936756603,TASK2
2026-04-28T10:56:54.016+00:00,1197,85733,150264.40772585958,106398.75160440821,552733.4052602536,200129.29441085985,143403.51741355864,159192.74499329863,543676.5231104521,553419.3132423536,TASK2
2026-04-28T10:56:54.016+00:00,1197,85734,150262.86545549217,106399.01982534167,552717.6472804126,200128.28858235938,143401.97514319123,159202.66916783678,543677.3277732525,553403.5552625126,TASK2
2026-04-28T10:56:54.016+00:00,1197,85735,150261.32318512475,106397.47755497426,552702.4257424385,200125.6734282581,143400.16465189034,159208.83824930646,543674.9808400847,553388.0655036051,TASK2
2026-04-28T10:56:54.016+00:00,1197,85736,150257.63514728963,106397.74577590772,552688.8135300652,200122.25361135643,143401.50575655766,159212.59334237495,543671.8292441166,553374.1850702984,TASK2
2026-04-28T10:56:54.016+00:00,1197,85737,150255.82465598875,106400.1597643089,552676.0059804923,200121.78422472288,143403.65152402536,159216.34843544345,543665.4589969467,553361.6457416589,TASK2
2026-04-28T10:56:54.016+00:00,1197,85738,150257.70220252298,106401.76908990968,552662.393768119,200121.58305902279,143407.67483802733,159222.78573784657,543661.5027381781,553348.3017502191,TASK2
2026-04-28T10:56:54.016+00:00,1197,85739,150259.57974905724,106402.30553177661,552646.9040092116,200122.38772182318,143409.28416362812,159228.95481931622,543657.278258476,553332.5437703781,TASK2
2026-04-28T10:56:54.016+00:00,1197,85740,150259.57974905724,106404.45129924432,552630.3413665702,200122.18655612308,143414.11214043046,159236.19678451977,543653.590220641,553315.9811277367,TASK2
2026-04-28T10:56:54.016+00:00,1197,85741,150258.57392055675,106406.59706671203,552619.1431425981,200120.10784388872,143415.9896869647,159247.19384279175,543654.3948834414,553305.3193456315,TASK2
2026-04-28T10:56:54.016+00:00,1197,85742,150259.6468042906,106406.59706671203,552610.8953488941,200117.7609107209,143415.7885212646,159255.7769126626,543658.6864183767,553297.339772861,TASK2
2026-04-28T10:56:54.016+00:00,1197,85743,150264.13950492613,106408.54166847964,552600.7700086558,200118.43146305459,143419.94594573329,159265.4328662673,543663.9167265793,553286.4097698224,TASK2
2026-04-28T10:56:54.016+00:00,1197,85744,150265.21238865997,106409.88277314696,552584.7438078814,200119.23612585498,143424.50570160217,159274.01593613814,543669.0129243152,553270.3835690479,TASK2
2026-04-28T10:56:54.016+00:00,1197,85745,150266.28527239384,106409.41338651339,552569.2540489738,200119.03496015488,143423.49987310168,159281.5261222751,543668.0070958147,553254.8938101403,TASK2
2026-04-28T10:56:54.016+00:00,1197,85746,150265.27944389335,106409.94982838033,552556.1782784675,200117.7609107209,143419.5436143331,159287.96342467825,543667.8059301146,553241.5498187005,TASK2
2026-04-28T10:56:54.016+00:00,1197,85747,150264.27361539286,106410.75449118072,552545.2482754288,200118.83379445478,143421.95760273427,159291.71851774675,543671.561023183,553230.8880365954,TASK2
2026-04-28T10:56:54.016+00:00,1197,85748,150265.88294099364,106412.90025864843,552533.7818305233,200122.3206665898,143424.10337020198,159295.20538988177,543674.7796743846,553219.4215916898,TASK2
2026-04-28T10:56:54.016+00:00,1197,85749,150268.83337126175,106411.08976734754,552519.0967344161,200124.4664340575,143426.7855795366,159296.81471548256,543671.359857483,553205.0047165161,TASK2
2026-04-28T10:56:54.016+00:00,1197,85750,150266.48643809394,106411.89443014794,552504.9480801759,200122.65594275662,143424.70686730227,159298.42404108332,543664.9896103132,553191.1242832093,TASK2
2026-04-28T10:56:54.016+00:00,1197,85751,150261.72551652495,106412.1626510814,552492.9451934034,200118.69968398803,143423.96925973526,159299.2287038837,543667.6718196478,553179.3896173703,TASK2
2026-04-28T10:56:54.016+00:00,1197,85752,150257.76925775636,106413.23553481526,552483.0880740986,200114.475204286,143424.50570160217,159301.37447135142,543676.7913313856,553169.800718999,TASK2
2026-04-28T10:56:54.016+00:00,1197,85753,150258.84214149023,106413.77197668218,552471.8898501265,200111.05538738432,143427.1879109368,159302.17913415184,543680.2782035206,553158.3342740934,TASK2
2026-04-28T10:56:54.016+00:00,1197,85754,150260.18324615754,106413.03436911516,552456.9365330859,200108.7084542165,143429.87012027146,159297.95465444977,543674.4443982177,553143.3809570528,TASK2
2026-04-28T10:56:54.016+00:00,1197,85755,150257.03165018934,106412.29676154813,552443.0560997792,200104.215753581,143432.2841086726,159294.5348375481,543664.050837046,553129.5005237461,TASK2
2026-04-28T10:56:54.016+00:00,1197,85756,150251.19784488648,106412.29676154813,552451.63916965,200095.69973894354,143429.66895457136,159294.333671848,543653.6572758743,553142.3751285523,TASK2
2026-04-28T10:56:54.016+00:00,1197,85757,150247.50980705136,106412.83320341507,552509.3066703447,200091.74348017495,143427.590242337,159296.21121838226,543650.2374589727,553198.4333036463,TASK2
2026-04-28T10:56:54.016+00:00,1197,85758,150247.30864135126,106412.3638167815,552518.157961149,200091.54231447485,143424.4386463688,159296.01005268216,543645.2083164703,553204.3341641824,TASK2
2026-04-28T10:56:54.016+00:00,1197,85759,150246.30281285077,106412.1626510814,552502.9364231749,200088.65893944012,143423.4328178683,159295.27244511512,543644.4707089032,553189.3808471418,TASK2
2026-04-28T10:56:54.016+00:00,1197,85760,150244.49232154991,106409.81571791359,552489.3242108016,200080.67936666956,143422.15876843437,159292.3890700804,543646.080034504,553175.7686347686,TASK2
2026-04-28T10:56:54.016+00:00,1197,85761,150241.60894651516,106407.20056381232,552477.8577658961,200071.09046829824,143422.6952103013,159290.31035784606,543651.4444531733,553163.765747996,TASK2
2026-04-28T10:56:54.016+00:00,1197,85762,150238.1891296135,106406.4629562453,552468.0006465913,200064.7202211285,143425.6456405694,159292.1879043803,543658.6864183767,553153.6404077578,TASK2
2026-04-28T10:56:54.016+00:00,1197,85763,150237.4515220465,106406.73117717876,552456.5342016857,200062.9097298276,143427.25496617018,159297.2841021161,543660.563964911,553142.4421837857,TASK2
2026-04-28T10:56:54.020+00:00,1197,85764,150238.52440578034,106406.53001147867,552442.117326512,200062.44034319403,143429.9371755048,159299.69809051728,543660.3627992109,553128.2935295455,TASK2
2026-04-28T10:56:54.020+00:00,1197,85765,150239.86551044765,106405.79240391163,552427.7004513384,200061.1662937601,143429.7360098047,159299.49692481718,543659.625191644,553113.6084334383,TASK2
2026-04-28T10:56:54.020+00:00,1197,85766,150237.78679821332,106403.7136916773,552415.6975645659,200057.2100349915,143427.92551850385,159299.49692481718,543659.4240259439,553101.6055466658,TASK2
2026-04-28T10:56:54.020+00:00,1197,85767,150234.63520224512,106402.17142130987,552407.4497708619,200054.59488089022,143429.80306503808,159300.0333666841,543663.9837818127,553093.3577529619,TASK2
2026-04-28T10:56:54.020+00:00,1197,85768,150233.8975946781,106402.97608411027,552397.8608724906,200054.8631018237,143432.21705343926,159302.4473550853,543666.6659911473,553084.037075524,TASK2
2026-04-28T10:56:54.020+00:00,1197,85769,150233.15998711105,106404.58540971106,552384.5168810508,200053.8572733232,143429.60189933798,159305.12956441994,543662.1732905118,553070.6930840842,TASK2
2026-04-28T10:56:54.020+00:00,1197,85770,150232.6906004775,106407.66995044588,552373.385712312,200051.1080087552,143431.68061157232,159307.0071109542,543655.2666014751,553058.7572525451,TASK2
2026-04-28T10:56:54.020+00:00,1197,85771,150229.27078357583,106405.85945914501,552369.6976744769,200045.8106453193,143432.21705343926,159305.19661965332,543648.6281333719,553055.6056565768,TASK2
2026-04-28T10:56:54.020+00:00,1197,85772,150227.1920713415,106404.04896784412,552368.9600669098,200041.31794468377,143434.36282090697,159304.99545395322,543644.6718746033,553054.5998280763,TASK2
2026-04-28T10:56:54.020+00:00,1197,85773,150227.9967341419,106404.04896784412,552359.9076104055,200038.97101151597,143436.50858837468,159307.67766328785,543640.7156158347,553046.0838134389,TASK2
2026-04-28T10:56:54.020+00:00,1197,85774,150229.06961787574,106405.65829344491,552347.6365026995,200035.81941554777,143437.58147210852,159307.94588422132,543633.272484931,553033.5444847995,TASK2
2026-04-28T10:56:54.020+00:00,1197,85775,150228.6002312422,106405.92651437837,552334.2925112597,200032.66781957957,143438.92257677583,159305.59895105351,543624.2200284267,553020.2004933597,TASK2
2026-04-28T10:56:54.020+00:00,1197,85776,150226.25329807439,106404.1160230775,552324.4353919548,200029.51622361137,143434.42987614032,159305.39778535342,543614.0946881884,553010.0751531214,TASK2
2026-04-28T10:56:54.425+00:00,1198,85777,150223.10170210619,106401.76908990968,552318.0651447851,200027.43751137704,143430.7418383052,159307.27533188765,543606.3833363514,553003.7049059516,TASK2
2026-04-28T10:56:54.425+00:00,1198,85778,150223.10170210619,106399.9585986088,552309.2809092142,200028.51039511088,143430.7418383052,159309.68932028883,543597.867321714,552994.9206703807,TASK2
2026-04-28T10:56:54.425+00:00,1198,85779,150227.66145797505,106398.95277010831,552297.5462433752,200029.58327884474,143432.61938483946,159310.22576215575,543583.1822256068,552983.1860045417,TASK2
2026-04-28T10:56:54.425+00:00,1198,85780,150229.5390045093,106399.75743290871,552286.88446127,200028.30922941078,143433.15582670638,159311.03042495614,543565.2784782981,552972.5242224365,TASK2
2026-04-28T10:56:54.425+00:00,1198,85781,150228.26495507534,106401.90320037642,552278.9048884994,200025.15763344258,143426.51735860316,159312.63975055693,543548.4476147232,552964.544649666,TASK2
2026-04-28T10:56:54.425+00:00,1198,85782,150224.8451381737,106404.04896784412,552272.802862263,200022.54247934133,143426.31619290306,159317.19950642582,543535.3718442168,552958.4426234296,TASK2
2026-04-28T10:56:54.425+00:00,1198,85783,150223.30286780628,106404.58540971106,552264.8232894925,200022.07309270775,143429.5348441046,159320.68637856084,543523.9053993113,552950.7312715926,TASK2
2026-04-28T10:56:54.425+00:00,1198,85784,150223.10170210619,106403.57958121056,552253.6250655204,200021.60370607418,143434.0945999735,159323.10036696203,543514.31650094,552939.5330476204,TASK2
2026-04-28T10:56:54.425+00:00,1198,85785,150220.4865480049,106402.30553177661,552243.4997252822,200018.72033103945,143438.6543558424,159322.09453846153,543503.1182769679,552929.6759283156,TASK2
2026-04-28T10:56:54.425+00:00,1198,85786,150215.9938473694,106399.69037767535,552303.581214378,200009.93609546853,143439.9954605097,159320.01582622717,543489.2378436611,552999.4133710162,TASK2
2026-04-28T10:56:54.425+00:00,1198,85787,150213.11047233467,106396.53878170715,552505.8197982097,200005.97983669993,143437.91674827537,159320.01582622717,543472.9434219531,553199.2379664467,TASK2
2026-04-28T10:56:54.425+00:00,1198,85788,150212.10464383417,106393.6554066724,552554.6360081001,200007.32094136724,143434.76515230717,159320.5522680941,543461.4769770476,553240.8122111335,TASK2
2026-04-28T10:56:54.425+00:00,1198,85789,150211.09881533368,106391.84491537153,552538.6098073256,200006.31511286675,143433.75932380668,159320.5522680941,543451.3516368093,553225.0542312926,TASK2
2026-04-28T10:56:54.425+00:00,1198,85790,150208.21544029895,106392.113136305,552524.7293740188,200004.5046215659,143430.87594877192,159320.5522680941,543442.5674012384,553210.9055770523,TASK2
