timestamp_utc,packet_index,sample_index,AF3,AF4,F3,F4,FC5,FC6,O2,O1,label
2026-04-28T10:55:41.001+00:00,981,67452,163892.24396851586,107543.85382459805,553676.0677309117,257634.2532198731,150339.84486339625,174256.90433465294,554301.9612791492,554427.3545655435,TASK1
2026-04-28T10:55:41.001+00:00,981,67453,163892.7804103828,107545.99959206577,553662.9919604054,257630.56518203797,150337.7661511619,174254.8256224186,554288.6172877094,554414.0105741037,TASK1
2026-04-28T10:55:41.001+00:00,981,67454,163892.04280281576,107542.84799609757,553648.0386433648,257625.53603953554,150338.03437209537,174250.06470084962,554273.9321916023,554399.0572570631,TASK1
2026-04-28T10:55:41.001+00:00,981,67455,163889.69586964796,107538.89173732897,553637.6450821931,257619.16579236576,150334.34633426025,174245.5720002141,554263.5386304306,554388.3954749579,TASK1
2026-04-28T10:55:41.001+00:00,981,67456,163888.15359928054,107537.61768789502,553635.2981490252,257614.94131266372,150330.92651735857,174243.76150891322,554261.4599181962,554386.584983657,TASK1
2026-04-28T10:55:41.001+00:00,981,67457,163889.49470394786,107537.61768789502,553633.4876577243,257612.86260042936,150333.87694762668,174242.75568041272,554259.1129850284,554384.5062714226,TASK1
2026-04-28T10:55:41.001+00:00,981,67458,163890.29936674825,107533.9296500599,553620.9483290849,257611.32033006195,150339.5095872294,174237.99475884374,554246.5736563889,554371.6987218498,TASK1
2026-04-28T10:55:41.001+00:00,981,67459,163889.8299801147,107531.04627502516,553608.4090004455,257609.24161782762,150337.967316862,174234.84316287554,554234.0343277495,554358.8911722769,TASK1
2026-04-28T10:55:41.001+00:00,981,67460,163888.82415161422,107532.11915875901,553598.0154392738,257606.62646372634,150334.0110580934,174232.49622970773,554223.3725456444,554348.4976111052,TASK1
2026-04-28T10:55:41.001+00:00,981,67461,163888.62298591412,107532.65560062595,553587.8900990356,257604.01130962506,150327.10436905673,174231.49040120724,554214.0518682065,554338.9087127339,TASK1
2026-04-28T10:55:41.001+00:00,981,67462,163890.50053244835,107533.46026342633,553575.8872122631,257604.27953055853,150329.78657839136,174231.7586221407,554201.7807605006,554326.3693840944,TASK1
2026-04-28T10:55:41.001+00:00,981,67463,163892.3780789826,107535.87425182751,553560.9338952224,257607.22996082663,150327.43964522355,174232.83150587458,554186.8274434599,554311.6842879873,TASK1
2026-04-28T10:55:41.001+00:00,981,67464,163891.90869234904,107535.40486519395,553549.7356712503,257607.4981817601,150324.82449112227,174229.94813083982,554175.3609985544,554300.4860640152,TASK1
2026-04-28T10:55:41.001+00:00,981,67465,163886.0748870462,107533.86259482653,553539.8785519456,257603.81014392496,150322.74577888794,174226.52831393818,554166.0403211165,554290.8971656439,TASK1
2026-04-28T10:55:41.001+00:00,981,67466,163883.1244567781,107535.33780996058,553531.9660344083,257603.9442543917,150319.25890675292,174227.80236337212,554157.9936931126,554283.3199242735,TASK1
2026-04-28T10:55:41.001+00:00,981,67467,163882.923291078,107536.41069369443,553524.5229035048,257604.21247532516,150321.67289515407,174229.94813083982,554150.550562209,554275.6085724364,TASK1
2026-04-28T10:55:41.001+00:00,981,67468,163882.923291078,107537.48357742828,553513.592900466,257602.93842589122,150321.47172945397,174230.75279364022,554139.3523382369,554264.6785693978,TASK1
2026-04-28T10:55:41.001+00:00,981,67469,163879.7716951098,107537.28241172819,553501.5900136936,257596.03173685452,150321.00234282043,174228.94230233933,554127.6176723979,554252.9439035588,TASK1
2026-04-28T10:55:41.001+00:00,981,67470,163876.0836572747,107536.27658322771,553492.0011153222,257587.51572221707,150321.80700562082,174226.863590105,554118.833436827,554243.8914470543,TASK1
2026-04-28T10:55:41.001+00:00,981,67471,163869.44518917147,107535.00253379375,553557.1788021539,257579.26792851306,150316.50964218492,174225.58954067106,554193.9352981967,554318.9933084241,TASK1
2026-04-28T10:55:41.001+00:00,981,67472,163866.0253722698,107531.5827168921,553763.9771418545,257575.5798906779,150310.94405781553,174224.3154912371,554398.0514285626,554523.6458806569,TASK1
2026-04-28T10:55:41.001+00:00,981,67473,163865.8242065697,107527.09001625657,553810.3793633437,257572.4282947097,150309.40178744812,174220.62745340198,554436.9434639148,554562.5379160092,TASK1
2026-04-28T10:55:41.001+00:00,981,67474,163860.79506406726,107523.40197842145,553795.1578253696,257566.05804753996,150304.9090868126,174218.54874116761,554421.4537050073,554547.0481571016,TASK1
2026-04-28T10:55:41.001+00:00,981,67475,163851.74260756286,107518.10461498554,553783.1549385971,257558.61491663635,150298.2706187094,174215.12892426597,554409.4508182348,554535.3134912626,TASK1
2026-04-28T10:55:41.001+00:00,981,67476,163844.03125572577,107513.34369341655,553773.5660402258,257554.12221600083,150296.99656927542,174209.02689802967,554399.8619198635,554525.4563719578,TASK1
2026-04-28T10:55:41.001+00:00,981,67477,163841.95254349144,107511.53320211568,553762.9042581206,257552.84816656687,150299.14233674313,174202.12020899297,554389.2001377583,554514.7945898527,TASK1
2026-04-28T10:55:41.001+00:00,981,67478,163839.60561032363,107507.30872241363,553747.6827201465,257548.89190779827,150297.0636245088,174193.06775248857,554373.9785997842,554499.841272812,TASK1
2026-04-28T10:55:41.001+00:00,981,67479,163837.25867715583,107502.27957991118,553732.4611821724,257538.76656756003,150291.4980401394,174184.01529598417,554358.7570618101,554484.619734838,TASK1
2026-04-28T10:55:41.001+00:00,981,67480,163834.64352305455,107496.17755367488,553721.5311791338,257523.81325051942,150284.8595720362,174174.1581766794,554347.558837838,554473.6897317993,TASK1
2026-04-28T10:55:41.001+00:00,981,67481,163829.34615961864,107489.53908557165,553712.210501696,257509.1281544123,150278.7575457999,174161.88706897342,554338.2381604002,554464.637275295,TASK1
2026-04-28T10:55:41.001+00:00,981,67482,163823.24413338234,107484.5099430692,553702.6216033247,257496.85704670634,150269.7050892955,174149.8841822009,554329.1857038958,554455.316597857,TASK1
2026-04-28T10:55:41.001+00:00,981,67483,163816.8738862126,107482.43123083487,553690.0822746851,257484.31771806692,150262.7984002588,174139.22240009575,554316.9145961899,554442.5090482841,TASK1
2026-04-28T10:55:41.001+00:00,981,67484,163810.23541810934,107482.43123083487,553678.3476088461,257469.09618009283,150246.77219948435,174129.63350172443,554304.6434884839,554430.5061615116,TASK1
2026-04-28T10:55:41.001+00:00,981,67485,163802.52406627228,107479.54785580013,553666.6129430071,257452.265316518,150233.696428978,174120.0446033531,554292.9088226449,554418.7714956726,TASK1
2026-04-28T10:55:41.001+00:00,981,67486,163792.398726034,107475.59159703154,553661.0473586378,257436.77555761047,150225.448635274,174112.06503058254,554287.6114592089,554413.4741322368,TASK1
2026-04-28T10:55:41.001+00:00,981,67487,163785.22381606387,107474.85398946452,553656.0182161353,257424.77267083796,150214.51863223533,174104.085457812,554282.5823167064,554408.4449897343,TASK1
2026-04-28T10:55:41.001+00:00,981,67488,163782.07222009567,107472.23883536324,553644.2835502962,257416.25665620048,150202.51574546285,174096.10588504147,554270.8476508674,554396.9785448287,TASK1
2026-04-28T10:55:41.001+00:00,981,67489,163778.652403194,107469.62368126198,553633.3535472576,257408.27708342994,150191.58574242418,174085.9805448032,554259.3812059618,554385.5120999231,TASK1
2026-04-28T10:55:41.001+00:00,981,67490,163772.5503769577,107469.15429462842,553624.5693116867,257397.61530132475,150184.41083245404,174073.9776580307,554250.5969703909,554376.7278643522,TASK1
2026-04-28T10:55:41.001+00:00,981,67491,163765.64368792102,107469.42251556188,553618.1990645169,257385.07597268533,150181.79567835276,174067.07096899403,554244.2267232211,554370.3576171824,TASK1
2026-04-28T10:55:41.001+00:00,981,67492,163759.0052198178,107469.69073649534,553610.2194917464,257373.07308591285,150171.67033811452,174064.99225675967,554236.2471504506,554362.3780444119,TASK1
2026-04-28T10:55:41.001+00:00,981,67493,163756.39006571652,107469.22134986178,553598.2166049739,257361.3384200738,150168.25052121285,174060.23133519068,554223.9760427447,554350.106936706,TASK1
2026-04-28T10:55:41.001+00:00,981,67494,163754.57957441563,107467.4108585609,553585.6772763345,257349.87197516824,150167.7811345793,174053.324646154,554210.9002722383,554337.5676080665,TASK1
2026-04-28T10:55:41.001+00:00,981,67495,163752.23264124783,107465.60036726002,553576.6248198301,257336.79620466186,150164.6295386111,174049.63660831886,554202.6524785343,554329.3198143626,TASK1
2026-04-28T10:55:41.001+00:00,981,67496,163749.08104527963,107464.05809689261,553570.2545726603,257326.9390853571,150162.81904731021,174049.63660831886,554196.2822313645,554322.6813462593,TASK1
2026-04-28T10:55:41.001+00:00,981,67497,163748.27638247923,107465.13098062646,553563.2808283903,257322.5804951883,150163.6237101106,174051.11182345293,554188.7049899942,554314.2323868552,TASK1
2026-04-28T10:55:41.001+00:00,981,67498,163748.07521677914,107465.13098062646,553551.2779416178,257317.01491081892,150151.88904427158,174048.2284484182,554177.2385450886,554302.4977210162,TASK1
2026-04-28T10:55:41.001+00:00,981,67499,163748.07521677914,107463.32048932558,553540.6161595125,257307.96245431452,150150.8832157711,174043.19930591574,554166.0403211165,554291.2994970441,TASK1
2026-04-28T10:55:41.001+00:00,981,67500,163746.26472547825,107461.24177709124,553530.2225983408,257299.1782187436,150150.4138291375,174035.2197331452,554155.6467599447,554281.1741568057,TASK1
2026-04-28T10:55:41.001+00:00,981,67501,163744.72245511084,107460.77239045767,553538.2692263448,257291.73508783997,150155.24180593988,174030.7270325097,554167.9849228841,554293.5123197451,TASK1
2026-04-28T10:55:41.001+00:00,981,67502,163744.9906760443,107460.30300382411,553591.645192104,257287.24238720446,150158.99689900834,174028.64832027533,554221.0926677099,554346.6200645709,TASK1
2026-04-28T10:55:41.001+00:00,981,67503,163746.06355977815,107459.02895439016,553602.105808509,257283.28612843587,150152.89487277207,174026.569608041,554228.06641198,554353.8620297745,TASK1
2026-04-28T10:55:41.001+00:00,981,67504,163743.98484754382,107457.48668402275,553590.907584537,257278.79342780035,150151.08438147118,174025.5637795405,554216.5999670743,554342.1273639353,TASK1
2026-04-28T10:55:41.001+00:00,981,67505,163741.36969344254,107454.33508805455,553581.0504652322,257272.15495969713,150151.6208233381,174024.8261719735,554206.7428477696,554332.2702446306,TASK1
2026-04-28T10:55:41.001+00:00,981,67506,163740.0956440086,107452.2563758202,553572.5344505947,257266.05293346083,150158.05812574123,174025.89905570733,554198.2268331321,554323.7542299931,TASK1
2026-04-28T10:55:41.001+00:00,981,67507,163739.8944783085,107451.78698918664,553564.5548778242,257257.2686978899,150164.49542814435,174026.43549757428,554189.9790394282,554315.5064362892,TASK1
2026-04-28T10:55:41.001+00:00,981,67508,163740.6991411089,107450.78116068615,553553.0884329187,257246.87513671818,150160.80739030923,174025.42966907378,554178.7808154561,554304.0399913836,TASK1
2026-04-28T10:55:41.001+00:00,981,67509,163742.30846670968,107449.5071112522,553541.0855461461,257237.5544592803,150159.5333408753,174023.35095683942,554166.7779286836,554292.037104611,TASK1
2026-04-28T10:55:41.001+00:00,981,67510,163740.4979754088,107451.38465778645,553532.0330896417,257229.57488650977,150165.70242234494,174021.54046553856,554157.9936931126,554282.9846481066,TASK1
2026-04-28T10:55:41.001+00:00,981,67511,163740.02858877523,107456.2126345888,553525.3946215385,257225.08218587426,150174.55371314925,174021.808686472,554151.3552250094,554276.3461800035,TASK1
2026-04-28T10:55:41.001+00:00,981,67512,163740.02858877523,107457.01729738919,553517.6832697014,257220.32126430527,150172.74322184836,174021.6075207719,554143.3756522388,554268.6348281663,TASK1
2026-04-28T10:55:41.001+00:00,981,67513,163740.56503064217,107457.55373925611,553506.2168247958,257213.68279620205,150165.8365328117,174021.6075207719,554132.4456492001,554257.4366041942,TASK1
2026-04-28T10:55:41.001+00:00,981,67514,163741.1014725091,107459.1630648569,553492.872833356,257207.58076996575,150164.8307043112,174018.7241457372,554119.1016577603,554244.0926127544,TASK1
2026-04-28T10:55:41.001+00:00,981,67515,163739.82742307513,107458.69367822334,553483.5521559182,257200.94230186252,150169.12223924662,174013.9632241682,554109.512759389,554234.5037143831,TASK1
2026-04-28T10:55:41.001+00:00,981,67516,163737.7487108408,107455.0056403882,553484.0885977851,257193.76739189238,150171.80444858124,174009.20230259924,554110.0492012559,554235.04015625,TASK1
2026-04-28T10:55:41.001+00:00,981,67517,163738.82159457463,107456.07852412206,553483.6192111515,257188.47002845648,150174.21843698242,174009.00113689914,554109.3115936889,554234.0343277495,TASK1
2026-04-28T10:55:41.001+00:00,981,67518,163741.36969344254,107459.5653962571,553475.3714174475,257184.6478801546,150178.10764051764,174010.94573866675,554101.264965685,554226.4570863792,TASK1
2026-04-28T10:55:41.001+00:00,981,67519,163739.2909812082,107457.21846308929,553464.7096353424,257178.27763298483,150179.1805242515,174009.93991016626,554090.6031835799,554216.0635252075,TASK1
2026-04-28T10:55:41.001+00:00,981,67520,163736.40760617348,107455.67619272186,553456.1936207048,257171.1027230147,150176.29714921676,174007.0565351315,554081.5507270754,554206.7428477696,TASK1
2026-04-28T10:55:41.001+00:00,981,67521,163734.32889393912,107455.67619272186,553449.8233735351,257163.12315024415,150181.66156788604,174004.44138103025,554074.9122589722,554199.8361587329,TASK1
2026-04-28T10:55:41.001+00:00,981,67522,163736.20644047338,107457.82196018957,553446.1353357,257158.89867054208,150173.95021604895,174006.58714849796,554071.2242211371,554196.1481208978,TASK1
2026-04-28T10:55:41.001+00:00,981,67523,163739.15687074148,107457.62079448948,553436.5464373287,257155.74707457388,150175.8277625832,174004.24021533015,554061.6353227658,554186.8274434599,TASK1
2026-04-28T10:55:41.001+00:00,981,67524,163738.9557050414,107456.88318692245,553425.61643429,257149.64504833758,150182.80150685325,173998.13818909385,554051.2417615941,554176.1656613548,TASK1
2026-04-28T10:55:41.001+00:00,981,67525,163737.9498765409,107455.34091655504,553418.1733033864,257138.98326623242,150186.02015805483,173992.03616285755,554043.5304097569,554168.4543095176,TASK1
2026-04-28T10:55:41.001+00:00,981,67526,163736.9440480404,107456.68202122235,553412.0712771501,257129.93080972802,150188.97058832293,173991.29855529053,554037.1601625872,554162.3522832814,TASK1
2026-04-28T10:55:41.295+00:00,982,67527,163735.66999860643,107457.48668402275,553406.5056927807,257124.0970044252,150184.47788768742,173997.73585769365,554032.1310200847,554157.0549198454,TASK1
2026-04-28T10:55:41.295+00:00,982,67528,163736.47466140683,107455.13975085494,553400.6718874779,257119.06786192273,150184.74610862086,174002.29561356254,554026.2972147819,554151.4893354761,TASK1
2026-04-28T10:55:41.295+00:00,982,67529,163737.27932420722,107452.2563758202,553392.1558728404,257116.9891496884,150185.28255048778,174002.29561356254,554017.7812001444,554142.7050999051,TASK1
2026-04-28T10:55:41.295+00:00,982,67530,163736.00527477328,107451.78698918664,553385.7856256707,257114.6422165206,150184.81316385424,174001.82622692897,554011.4109529747,554136.3348527354,TASK1
2026-04-28T10:55:41.295+00:00,982,67531,163735.26766720627,107449.97649788576,553440.7709170307,257106.9308646835,150181.66156788604,174003.16733159628,554074.7110932721,554199.9032139663,TASK1
2026-04-28T10:55:41.295+00:00,982,67532,163739.2909812082,107443.87447164947,553592.3157444376,257104.31571058222,150185.95310282146,174002.1615030958,554222.7690485441,554348.2293901717,TASK1
2026-04-28T10:55:41.295+00:00,982,67533,163740.0956440086,107441.25931754819,553614.0416400483,257103.5781030152,150182.53328591978,174000.35101179493,554239.6669673523,554364.8590880465,TASK1
2026-04-28T10:55:41.295+00:00,982,67534,163738.5533736412,107439.98526811424,553601.5023114088,257099.89006518008,150178.04058528427,173998.27229956057,554227.3958596463,554352.856201274,TASK1
2026-04-28T10:55:41.295+00:00,982,67535,163736.20644047338,107437.90655587989,553591.108750237,257095.66558547804,150177.83941958417,173994.85248265893,554216.4658566077,554342.1944191688,TASK1
2026-04-28T10:55:41.295+00:00,982,67536,163733.5912863721,107438.17477681336,553582.8609565331,257093.58687324368,150176.8335910837,173994.11487509188,554208.7545047706,554334.2148463982,TASK1
2026-04-28T10:55:41.295+00:00,982,67537,163733.85950730558,107437.7053901798,553575.686046563,257091.50816100935,150179.51580041833,173994.38309602535,554201.8478157339,554327.0399364281,TASK1
2026-04-28T10:55:41.295+00:00,982,67538,163738.151042241,107439.31471578058,553563.9513807239,257088.35656504115,150183.53911442027,173992.30438379102,554189.8449289614,554315.5734915225,TASK1
2026-04-28T10:55:41.295+00:00,982,67539,163740.02858877523,107437.50422447971,553552.2167148849,257082.79098067177,150192.92684709153,173987.00702035511,554178.1102631224,554303.8388256835,TASK1
2026-04-28T10:55:41.295+00:00,982,67540,163737.9498765409,107437.03483784613,553545.0418049147,257075.88429163507,150196.95016109347,173984.12364532036,554170.9353531522,554296.3956947798,TASK1
2026-04-28T10:55:41.295+00:00,982,67541,163736.40760617348,107438.37594251346,553539.2079996119,257069.7822653988,150188.97058832293,173984.39186625383,554165.1015478494,554290.2936685436,TASK1
2026-04-28T10:55:41.295+00:00,982,67542,163737.21226897388,107438.91238438038,553531.7648687082,257066.36244849712,150187.69653888897,173984.92830812075,554157.6584169457,554283.1187585734,TASK1
2026-04-28T10:55:41.295+00:00,982,67543,163740.6991411089,107441.32637278156,553521.9077494035,257064.55195719624,150186.28837898828,173987.8116831555,554147.3989662408,554273.0604735685,TASK1
2026-04-28T10:55:41.295+00:00,982,67544,163740.6991411089,107442.93569838234,553511.2459672983,257058.7181518934,150183.94144582047,173987.34229652194,554137.0054050691,554262.6669123968,TASK1
2026-04-28T10:55:41.295+00:00,982,67545,163739.96153354188,107443.74036118273,553504.3392782616,257051.00680005632,150183.94144582047,173987.34229652194,554129.8304950988,554255.4920024266,TASK1
2026-04-28T10:55:41.295+00:00,982,67546,163736.5417166402,107441.39342801493,553529.0156041402,257041.68612261847,150184.74610862086,173990.29272679004,554160.6759024472,554286.0691888415,TASK1
2026-04-28T10:55:41.295+00:00,982,67547,163735.26766720627,107440.38759951443,553614.3098609817,257038.80274758372,150182.93561731998,173992.43849425775,554244.6290546213,554370.0223410156,TASK1
2026-04-28T10:55:41.295+00:00,982,67548,163736.60877187358,107437.50422447971,553627.7209076548,257036.99225628286,150182.46623068643,173986.06824708797,554254.285008226,554379.4100736869,TASK1
2026-04-28T10:55:41.295+00:00,982,67549,163735.6029433731,107435.1572913119,553615.7180208823,257032.7677765808,150177.43708818397,173980.23444178514,554242.550342387,554367.6754078479,TASK1
2026-04-28T10:55:41.295+00:00,982,67550,163731.91490553797,107433.07857907756,553606.129122511,257026.39752941104,150174.82193408272,173975.47352021615,554232.6932230822,554357.818288543,TASK1
2026-04-28T10:55:41.295+00:00,982,67551,163728.76330956977,107429.39054124242,553599.2224334744,257018.68617757395,150172.4750009149,173970.17615678025,554225.2500921786,554350.3751576394,TASK1
2026-04-28T10:55:41.295+00:00,982,67552,163730.90907703748,107428.6529336754,553591.5110816372,257011.5112676038,150167.9823002794,173967.561002679,554217.270519408,554342.3955848688,TASK1
2026-04-28T10:55:41.295+00:00,982,67553,163735.46883290634,107426.03777957412,553579.7764157982,257004.06813670017,150172.81027708173,173964.14118577732,554205.2676326355,554330.6609190298,TASK1
2026-04-28T10:55:41.295+00:00,982,67554,163738.151042241,107423.69084640632,553568.0417499592,256997.69788953042,150178.17469575102,173959.1120432749,554193.5329667965,554318.6580322573,TASK1
2026-04-28T10:55:41.295+00:00,982,67555,163736.3405509401,107423.48968070622,553558.9892934548,256994.27807262875,150173.95021604895,173954.3511217059,554184.4805102921,554309.8737966864,TASK1
2026-04-28T10:55:41.295+00:00,982,67556,163733.72539683882,107426.17189004086,553552.619046285,256992.4675813279,150171.06684101422,173952.8088513385,554178.9149259228,554304.0399913836,TASK1
2026-04-28T10:55:41.295+00:00,982,67557,163734.53005963922,107430.19520404282,553544.371252581,256992.4675813279,150171.87150381462,173953.07707227196,554170.6671322187,554295.7921976795,TASK1
2026-04-28T10:55:41.295+00:00,982,67558,163736.67582710693,107430.99986684321,553532.3683658085,256991.99819469432,150174.01727128233,173954.68639787272,554158.1278035793,554283.2528690401,TASK1
2026-04-28T10:55:41.295+00:00,982,67559,163736.67582710693,107431.8045296436,553521.1701418364,256987.5054940588,150171.93855904797,173955.4910606731,554146.9295796072,554272.054645068,TASK1
2026-04-28T10:55:41.295+00:00,982,67560,163735.401777673,107430.26225927618,553512.654127199,256980.33058408863,150175.15721024954,173952.87590657186,554137.6089021694,554263.0021885636,TASK1
2026-04-28T10:55:41.295+00:00,982,67561,163734.66417010597,107430.79870114311,553511.1118568316,256974.4967787858,150178.91230331804,173950.26075247058,554136.8712946023,554261.9963600631,TASK1
2026-04-28T10:55:41.295+00:00,982,67562,163735.46883290634,107432.67624767736,553510.9106911315,256971.61340375108,150176.29714921676,173949.52314490356,554136.4019079688,554261.2587524961,TASK1
2026-04-28T10:55:41.295+00:00,982,67563,163738.9557050414,107433.74913141121,553500.2489090263,256968.73002871635,150175.02309978282,173947.98087453615,554125.7401258636,554250.3287494575,TASK1
2026-04-28T10:55:41.295+00:00,982,67564,163741.36969344254,107436.16311981238,553487.4413594534,256966.38309554855,150177.43708818397,173944.56105763448,554113.2007972242,554237.5211998846,TASK1
2026-04-28T10:55:41.295+00:00,982,67565,163739.82742307513,107436.16311981238,553480.2664494832,256962.15861584648,150179.85107658515,173940.87301979936,554106.025887254,554230.3462899145,TASK1
2026-04-28T10:55:41.295+00:00,982,67566,163736.40760617348,107434.08440757803,553476.0419697812,256957.3976942775,150178.84524808466,173937.98964476463,554101.801407552,554226.1218102124,TASK1
2026-04-28T10:55:41.295+00:00,982,67567,163735.401777673,107433.88324187795,553470.2081644783,256956.39186577703,150180.45457368545,173937.98964476463,554095.6993813156,554220.2880049095,TASK1
2026-04-28T10:55:41.295+00:00,982,67568,163736.7428823403,107436.83367214604,553460.0828242401,256956.66008671047,150185.28255048778,173938.25786569808,554085.8422620109,554210.1626646713,TASK1
2026-04-28T10:55:41.295+00:00,982,67569,163737.81576607417,107440.05232334761,553449.9574840019,256955.11781634306,150190.3787482236,173936.71559533066,554075.7169217726,554200.037324433,TASK1
2026-04-28T10:55:41.295+00:00,982,67570,163739.8944783085,107443.2039193158,553444.1907339323,256957.3976942775,150186.69071038847,173937.25203719758,554069.5478403029,554194.8070162304,TASK1
2026-04-28T10:55:41.295+00:00,982,67571,163739.42509167493,107442.19809081532,553440.5026960972,256958.20235707788,150181.39334695257,173934.10044122938,554065.5915815344,554191.1189783954,TASK1
2026-04-28T10:55:41.295+00:00,982,67572,163741.3026382092,107443.27097454917,553435.4735535948,256960.07990361215,150175.55954164974,173931.48528712813,554060.8306599654,554186.0898358929,TASK1
2026-04-28T10:55:41.295+00:00,982,67573,163745.32595221113,107444.07563734957,553426.4210970904,256958.80585417818,150175.09015501617,173929.94301676072,554051.5099825275,554177.0373793885,TASK1
2026-04-28T10:55:41.295+00:00,982,67574,163746.66705687845,107444.07563734957,553416.5639777856,256952.97204887535,150171.93855904797,173927.05964172597,554042.1893050896,554167.4484810171,TASK1
2026-04-28T10:55:41.295+00:00,982,67575,163744.58834464411,107444.07563734957,553410.9983934163,256946.87002263905,150163.69076534398,173923.90804575777,554036.8919416537,554162.1511175813,TASK1
2026-04-28T10:55:41.295+00:00,982,67576,163737.41343467397,107445.14852108342,553494.6833246569,256938.08578706812,150155.44297163998,173924.71270855816,554131.5739311664,554256.5648861604,TASK1
2026-04-28T10:55:41.295+00:00,982,67577,163733.9936177723,107445.14852108342,553746.5427811793,256936.5435167007,150147.99984073636,173923.97510099114,554380.7511783541,554505.7421333482,TASK1
2026-04-28T10:55:41.295+00:00,982,67578,163732.4513474049,107444.14269258293,553804.4785028074,256936.81173763415,150139.2156051654,173917.87307475484,554430.372051045,554555.363006039,TASK1
2026-04-28T10:55:41.295+00:00,982,67579,163728.4950886363,107440.45465474781,553790.0616276338,256928.83216486362,150129.89492772755,173909.35706011736,554415.6869549378,554540.6779099319,TASK1
2026-04-28T10:55:41.295+00:00,982,67580,163723.46594613386,107436.49839597922,553778.0587408612,256916.8292780911,150123.52468055778,173902.9868129476,554403.4158472319,554528.6750231594,TASK1
2026-04-28T10:55:41.295+00:00,982,67581,163719.7779082987,107433.07857907756,553769.5427262238,256908.31326345366,150120.64130552305,173897.42122857823,554394.8998325943,554519.622566655,TASK1
2026-04-28T10:55:41.295+00:00,982,67582,163718.77207979825,107431.53630871013,553760.4902697194,256905.16166748546,150120.64130552305,173894.00141167658,554385.310934223,554510.3018892171,TASK1
2026-04-28T10:55:41.295+00:00,982,67583,163720.381405399,107432.34097151052,553745.8051736123,256904.96050178536,150116.41682582098,173893.532025043,554371.4305009163,554496.1532349769,TASK1
2026-04-28T10:55:41.295+00:00,982,67584,163719.643797832,107433.68207617785,553731.1200775051,256901.00424301677,150116.95326768793,173889.5757662744,554356.7454048091,554481.4681388697,TASK1
2026-04-28T10:55:41.295+00:00,982,67585,163717.29686466418,107432.94446861082,553719.3854116661,256896.51154238125,150116.48388105436,173885.35128657238,554345.0107389701,554470.0016939642,TASK1
2026-04-28T10:55:41.295+00:00,982,67586,163715.21815242985,107431.4021982434,553712.210501696,256892.01884174574,150111.18651761845,173880.85858593686,554337.2993871331,554462.5585630606,TASK1
2026-04-28T10:55:41.295+00:00,982,67587,163714.74876579628,107430.66459067637,553703.426266125,256888.59902484406,150108.30314258373,173875.29300156748,554328.7833724956,554453.7743274897,TASK1
2026-04-28T10:55:41.295+00:00,982,67588,163717.16275419746,107431.73747441023,553690.0822746851,256884.91098700895,150111.52179378527,173870.5320799985,554315.7076019893,554440.4303360499,TASK1
2026-04-28T10:55:41.295+00:00,982,67589,163719.8449635321,107432.54213721062,553677.5429460458,256878.54073983917,150113.13111938606,173869.79447243147,554303.1682733498,554427.622786477,TASK1
2026-04-28T10:55:41.295+00:00,982,67590,163719.8449635321,107434.41968374487,553667.4176058075,256872.70693453634,150106.7608722163,173870.3309142984,554292.774712178,554417.4974462386,TASK1
2026-04-28T10:55:41.295+00:00,982,67591,163714.54760009618,107438.44299774682,553661.5838005047,256867.6777920339,150103.6092762481,173870.86735616534,554286.6726859418,554411.6636409359,TASK1
2026-04-28T10:55:41.295+00:00,982,67592,163711.9324459949,107440.58876521453,553658.4322045365,256866.1355216665,150103.6092762481,173871.94023989918,554282.9846481066,554408.2438240342,TASK1
2026-04-28T10:55:41.295+00:00,982,67593,163712.46888786185,107443.27097454917,553647.7704224313,256864.86147223253,150103.87749718156,173873.54956549997,554271.7864241345,554397.0456000621,TASK1
2026-04-28T10:55:41.295+00:00,982,67594,163710.92661749444,107447.02606761767,553635.2310937919,256861.44165533085,150097.5072500118,173872.81195793295,554260.0517582955,554385.310934223,TASK1
2026-04-28T10:55:41.295+00:00,982,67595,163706.16569592545,107451.31760255308,553626.1786372875,256855.0714081611,150091.13700284204,173874.42128353374,554251.2675227246,554376.2584777187,TASK1
2026-04-28T10:55:41.295+00:00,982,67596,163701.94121622338,107454.8044746881,553619.5401691842,256847.89649819097,150093.28277030974,173877.10349286837,554244.0926127544,554369.0835677485,TASK1
2026-04-28T10:55:41.295+00:00,982,67597,163700.93538772292,107458.02312588967,553610.7559336133,256843.13557662198,150096.50142151132,173878.71281846915,554235.5765981169,554360.567553111,TASK1
2026-04-28T10:55:41.295+00:00,982,67598,163701.74005052328,107460.97355615777,553599.5577096412,256842.39796905496,150096.03203487775,173880.85858593686,554224.6465950783,554349.3693291389,TASK1
2026-04-28T10:55:41.295+00:00,982,67599,163702.81293425715,107462.3146608251,553587.2866019353,256840.85569868752,150099.5189070128,173881.39502780378,554212.1072664389,554336.561779566,TASK1
2026-04-28T10:55:41.295+00:00,982,67600,163702.61176855705,107464.72864922626,553577.9659244973,256839.04520738666,150101.6646744805,173881.66324873726,554203.0548099345,554327.2411021282,TASK1
2026-04-28T10:55:41.295+00:00,982,67601,163704.55637032466,107471.16595162939,553572.6685610615,256837.50293701925,150101.0611773802,173886.35711507287,554198.2938883655,554323.2177881262,TASK1
2026-04-28T10:55:41.585+00:00,983,67602,163706.16569592545,107473.57994003057,553564.9572092243,256835.4242247849,150105.35271231562,173889.0393244075,554190.314315595,554315.5064362892,TASK1
2026-04-28T10:55:41.585+00:00,983,67603,163708.04324245968,107474.11638189749,553553.7589852522,256832.00440788324,150109.64424725104,173889.0393244075,554179.1160916229,554304.3082123171,TASK1
2026-04-28T10:55:41.585+00:00,983,67604,163707.30563489266,107474.38460283096,553543.633645014,256825.63416071347,150111.52179378527,173890.3804290748,554168.9907513846,554294.4510930122,TASK1
2026-04-28T10:55:41.585+00:00,983,67605,163704.69048079138,107473.37877433047,553534.3129675762,256818.19102980985,150119.03197992226,173892.52619654252,554159.6700739467,554285.1304155744,TASK1
2026-04-28T10:55:41.585+00:00,983,67606,163700.46600108934,107472.64116676344,553550.9426654509,256810.21145703932,150118.56259328872,173893.06263840946,554181.3959695573,554306.8563111849,TASK1
2026-04-28T10:55:41.585+00:00,983,67607,163699.46017258885,107475.59159703154,553630.3360617561,256808.13274480496,150115.67921825396,173891.7885889755,554260.5211449291,554386.2497074902,TASK1
2026-04-28T10:55:41.587+00:00,983,67608,163702.14238192348,107479.6149110335,553650.1844108325,256811.61961693998,150110.918296685,173891.5874232754,554275.5415172031,554401.5383006976,TASK1
2026-04-28T10:55:41.587+00:00,983,67609,163703.48348659082,107482.02889943468,553637.6450821931,256811.88783787345,150114.13694788655,173892.9285279427,554262.7339676302,554388.7307511247,TASK1
2026-04-28T10:55:41.587+00:00,983,67610,163700.33189062262,107482.5653413016,553627.7879628883,256810.34556750604,150110.18068911796,173893.46496980963,554252.8768483254,554378.87363182,TASK1
2026-04-28T10:55:41.587+00:00,983,67611,163699.86250398905,107482.83356223506,553620.8812738516,256808.80329713863,150108.10197688363,173892.9955831761,554245.9701592886,554371.4305009163,TASK1
2026-04-28T10:55:41.587+00:00,983,67612,163699.86250398905,107484.7111087693,553613.9745848149,256808.33391050505,150106.82792744966,173892.9955831761,554238.7952493185,554364.5238118796,TASK1
2026-04-28T10:55:41.587+00:00,983,67613,163702.54471332367,107487.12509717049,553603.8492445766,256804.64587266993,150107.63259025005,173893.532025043,554228.1334672134,554354.1302507079,TASK1
2026-04-28T10:55:41.587+00:00,983,67614,163704.95870172486,107488.73442277126,553592.9192415379,256799.08028830055,150108.97369491737,173890.64865000828,554216.9352432413,554343.4684686027,TASK1
2026-04-28T10:55:41.587+00:00,983,67615,163703.14821042397,107488.53325707116,553584.9396687674,256794.58758766504,150110.3147995847,173886.96061217316,554209.7603332711,554336.0253376991,TASK1
2026-04-28T10:55:41.587+00:00,983,67616,163700.53305632272,107488.33209137106,553579.1058634646,256792.77709636415,150103.94455241493,173886.75944647306,554203.9265279683,554329.9233114629,TASK1
2026-04-28T10:55:41.587+00:00,983,67617,163699.25900688875,107488.60031230454,553571.3945116275,256792.77709636415,150103.74338671484,173888.90521394077,554195.6787342642,554321.6755177588,TASK1
2026-04-28T10:55:41.587+00:00,983,67618,163699.05784118865,107489.94141697185,553559.391624855,256793.04531729763,150104.54804951523,173888.90521394077,554183.6758474917,554309.9408519197,TASK1
2026-04-28T10:55:41.587+00:00,983,67619,163698.32023362163,107492.08718443956,553548.1934008829,256791.23482599674,150103.8104419482,173887.89938544028,554172.4776235196,554298.7426279476,TASK1
2026-04-28T10:55:41.587+00:00,983,67620,163697.04618418767,107493.69651004035,553539.1409443785,256786.47390442778,150104.34688381513,173890.045152908,554163.1569460818,554289.4219505098,TASK1
2026-04-28T10:55:41.587+00:00,983,67621,163695.23569288678,107491.617797806,553536.7940112107,256783.32230845958,150106.49265128284,173889.5757662744,554161.0782338474,554287.3432382755,TASK1
2026-04-28T10:55:41.587+00:00,983,67622,163698.52139932173,107491.14841117244,553535.9893484103,256780.84126482502,150114.74044498685,173888.8381587074,554161.547620481,554287.0079621086,TASK1
2026-04-28T10:55:41.587+00:00,983,67623,163702.00827145675,107492.75773677322,553525.5957872386,256779.03077352417,150108.3701978171,173889.37460057432,554151.1540593093,554276.8826218704,TASK1
2026-04-28T10:55:41.587+00:00,983,67624,163702.81293425715,107493.02595770669,553514.3975632665,256777.48850315672,150108.63841875055,173889.6428215078,554139.6876144037,554265.4161769648,TASK1
2026-04-28T10:55:41.587+00:00,983,67625,163698.58845455508,107493.29417864015,553506.4179904959,256774.33690718852,150110.5159652848,173890.44748430818,554131.7080416331,554257.1683832607,TASK1
2026-04-28T10:55:41.587+00:00,983,67626,163694.90041671993,107495.1717251744,553500.5841851931,256771.18531122035,150113.19817461944,173891.52036804202,554125.8742363303,554251.0663570245,TASK1
2026-04-28T10:55:41.587+00:00,983,67627,163692.8217044856,107497.04927170865,553494.7503798903,256767.4972733852,150108.70547398392,173893.3979145763,554120.0404310274,554245.2325517216,TASK1
2026-04-28T10:55:41.587+00:00,983,67628,163691.8158759851,107498.39037637596,553484.0885977851,256765.9550030178,150108.70547398392,173892.66030700927,554109.9150907892,554235.1072114834,TASK1
2026-04-28T10:55:41.587+00:00,983,67629,163690.2736056177,107501.34080664406,553473.4268156799,256765.9550030178,150107.43142454996,173892.66030700927,554098.7168668171,554224.1772084448,TASK1
2026-04-28T10:55:41.587+00:00,983,67630,163686.58556778257,107503.48657411177,553466.2519057097,256764.9491745173,150102.13406111405,173891.92269944222,554091.2737359134,554216.4658566077,TASK1
2026-04-28T10:55:41.587+00:00,983,67631,163685.3115183486,107501.94430374436,553459.88165854,256760.72469481526,150100.59179074664,173888.50288254058,554084.9034887437,554210.0956094379,TASK1
2026-04-28T10:55:41.587+00:00,983,67632,163684.84213171506,107501.74313804426,553453.7796323036,256756.76843604667,150101.6646744805,173887.76527497356,554079.0696834408,554203.9935832015,TASK1
2026-04-28T10:55:41.587+00:00,983,67633,163684.64096601497,107500.73730954377,553444.4589548658,256752.81217727807,150103.00577914782,173887.29588833998,554069.749006003,554195.2093476306,TASK1
2026-04-28T10:55:41.587+00:00,983,67634,163684.9091869484,107499.73148104327,553435.4064983614,256747.78303477564,150100.39062504654,173884.41251330526,554060.9647704321,554186.4251120597,TASK1
2026-04-28T10:55:41.587+00:00,983,67635,163681.7575909802,107498.18921067586,553429.0362511916,256740.87634573894,150097.5072500118,173884.41251330526,554055.1309651292,554180.05486489,TASK1
2026-04-28T10:55:41.587+00:00,983,67636,163677.80133221162,107496.37871937497,553496.359705491,256731.5556683011,150096.50142151132,173888.97226917412,554131.5739311664,554255.9613890602,TASK1
2026-04-28T10:55:41.587+00:00,983,67637,163678.605995012,107493.76356527371,553677.1406146456,256729.2087351333,150099.7200727129,173888.97226917412,554308.331526319,554433.5236470131,TASK1
2026-04-28T10:55:41.587+00:00,983,67638,163680.48354154627,107490.07552743859,553701.2804986573,256727.93468569932,150098.44602327893,173885.284231339,554327.3752125949,554452.5673332891,TASK1
2026-04-28T10:55:41.587+00:00,983,67639,163680.28237584617,107488.2650361377,553687.1318444171,256722.36910132994,150096.09909011112,173878.64576323578,554313.4947792882,554438.4186790489,TASK1
2026-04-28T10:55:41.588+00:00,983,67640,163677.13077987797,107488.53325707116,553675.3971785781,256714.92597042632,150094.0203778768,173872.54373699948,554301.4918925157,554426.4157922764,TASK1
2026-04-28T10:55:41.588+00:00,983,67641,163675.58850951056,107488.0638704376,553666.8811639405,256710.4332697908,150093.8192121767,173870.7332456986,554292.9758778781,554418.1679985723,TASK1
2026-04-28T10:55:41.588+00:00,983,67642,163674.85090194354,107487.59448380405,553658.90159117,256708.35455755648,150095.42853777745,173870.5320799985,554284.7280841742,554409.9202048683,TASK1
2026-04-28T10:55:41.588+00:00,983,67643,163676.4602275443,107487.8627047375,553646.6304834641,256707.0805081225,150089.0582906077,173870.06269336495,554272.4569764682,554397.9173180958,TASK1
2026-04-28T10:55:41.588+00:00,983,67644,163677.80133221162,107486.05221343663,553634.3593757581,256705.27001682165,150093.6180464766,173866.64287646327,554260.4540896957,554385.6462103899,TASK1
2026-04-28T10:55:41.588+00:00,983,67645,163676.2590618442,107483.97350120229,553623.4293727195,256700.50909525267,150096.5684767447,173862.95483862815,554248.9876447901,554374.4479864178,TASK1
2026-04-28T10:55:41.588+00:00,983,67646,163675.2532333437,107483.97350120229,553616.7909046162,256697.089278351,150092.88043890955,173861.6807891942,554242.0809557535,554367.2730764477,TASK1
2026-04-28T10:55:41.588+00:00,983,67647,163677.19783511135,107489.60614080502,553610.3536022131,256698.76565918516,150092.07577610918,173862.55250722796,554235.3083771835,554360.7687188111,TASK1
2026-04-28T10:55:41.588+00:00,983,67648,163679.88004444598,107491.48368733926,553598.8871573076,256699.57032198555,150093.9533226434,173862.55250722796,554224.3783741449,554349.570494839,TASK1
2026-04-28T10:55:41.588+00:00,983,67649,163682.83047471408,107493.09301294005,553587.420712402,256695.8822841504,150088.38773827403,173863.08894909488,554212.6437083058,554337.835829,TASK1
2026-04-28T10:55:41.588+00:00,983,67650,163683.366916581,107494.70233854082,553578.1000349642,256689.24381604718,150086.04080510623,173861.27845779402,554203.5912518015,554328.5151515622,TASK1
2026-04-28T10:55:41.588+00:00,983,67651,163680.75176247972,107494.70233854082,553610.0183260463,256681.80068514356,150086.57724697317,173861.07729209392,554242.4832871536,554367.6754078479,TASK1
2026-04-28T10:55:41.588+00:00,983,67652,163681.8246462136,107493.69651004035,553723.7440018349,256682.33712701048,150086.1078603396,173860.87612639382,554354.0631954746,554479.2553161687,TASK1
2026-04-28T10:55:41.588+00:00,983,67653,163683.1657508809,107491.34957687254,553744.665234645,256683.41001074435,150083.7609271718,173861.14434732727,554370.1564514823,554495.61679311,TASK1
2026-04-28T10:55:41.588+00:00,983,67654,163681.89170144696,107488.4662018378,553731.5894641387,256682.40418224386,150082.21865680438,173861.41256826074,554356.8124600425,554482.0045807367,TASK1
2026-04-28T10:55:41.588+00:00,983,67655,163678.2036636118,107486.92393147039,553719.3183564327,256681.13013280992,150082.01749110428,173860.40673976025,554344.5413523365,554469.7334730307,TASK1
2026-04-28T10:55:41.588+00:00,983,67656,163675.856730444,107486.72276577029,553710.5341208618,256682.47123747724,150081.8163254042,173863.35717002835,554336.0253376991,554460.9492374598,TASK1
2026-04-28T10:55:41.588+00:00,983,67657,163676.12495137748,107488.0638704376,553701.4816643574,256682.73945841068,150084.4985347388,173866.30760029645,554326.9728811947,554451.8967809554,TASK1
2026-04-28T10:55:41.588+00:00,983,67658,163677.73427697827,107491.0143007057,553687.8694519841,256681.19718804327,150084.7667556723,173868.72158869763,554313.3606688214,554438.2845685821,TASK1
2026-04-28T10:55:41.588+00:00,983,67659,163679.07538164558,107493.16006817341,553675.0619024113,256679.11847580894,150080.0058341033,173868.98980963108,554300.5531192485,554425.4770190092,TASK1
2026-04-28T10:55:41.588+00:00,983,67660,163678.33777407857,107494.23295190727,553666.0094459068,256675.16221704034,150074.44024973392,173867.71576019714,554290.9642208772,554415.6198997045,TASK1
2026-04-28T10:55:41.588+00:00,983,67661,163675.99084091076,107493.49534434025,553659.1027568701,256670.9377373383,150072.0933165661,173865.10060609586,554284.325752774,554408.4449897343,TASK1
2026-04-28T10:55:41.588+00:00,983,67662,163674.44857054335,107493.76356527371,553651.3914050331,256668.05436230355,150075.0437468342,173865.63704796278,554276.6144009369,554401.0018588307,TASK1
2026-04-28T10:55:41.588+00:00,983,67663,163675.5214542772,107495.90933274142,553639.6567391941,256667.58497567,150075.58018870116,173865.90526889625,554264.6115141644,554389.2671929917,TASK1
2026-04-28T10:55:41.588+00:00,983,67664,163676.0578961441,107497.5186583422,553627.6538524216,256663.6287169014,150078.53061896926,173864.89944039576,554252.6086273919,554377.2643062192,TASK1
2026-04-28T10:55:41.588+00:00,983,67665,163674.78384671017,107498.59154207606,553617.7967331167,256659.67245813282,150077.52479046877,173860.40673976025,554242.4832871536,554367.4071869144,TASK1
2026-04-28T10:55:41.588+00:00,983,67666,163674.58268101007,107498.85976300952,553611.1582650135,256657.325524965,150077.0554038352,173857.52336472552,554235.8448190504,554360.7687188111,TASK1
2026-04-28T10:55:41.588+00:00,983,67667,163674.85090194354,107501.54197234416,553605.3244597106,256655.24681273068,150073.36736600008,173859.13269032628,554230.279234681,554354.9349135082,TASK1
2026-04-28T10:55:41.588+00:00,983,67668,163674.85090194354,107501.34080664406,553593.3215729381,256651.55877489553,150072.8979793665,173859.40091125976,554218.2763479085,554342.9320267357,TASK1
2026-04-28T10:55:41.588+00:00,983,67669,163673.04041064266,107502.14546944445,553581.5869070991,256647.3342951935,150075.58018870116,173856.78575715848,554206.8099030029,554331.4655818302,TASK1
2026-04-28T10:55:41.588+00:00,983,67670,163669.35237280754,107502.41369037791,553573.6073343286,256642.30515269103,150075.37902300106,173856.31637052493,554198.8303302324,554323.7542299931,TASK1
2026-04-28T10:55:41.588+00:00,983,67671,163665.39611403894,107502.68191131137,553566.4324243584,256639.4217776563,150073.83675263365,173855.5787629579,554191.6554202623,554316.579320023,TASK1
2026-04-28T10:55:41.588+00:00,983,67672,163664.92672740537,107504.55945784562,553558.9892934548,256636.2701816881,150066.12540079656,173852.4271669897,554184.4805102921,554309.4044100528,TASK1
2026-04-28T10:55:41.588+00:00,983,67673,163667.07249487308,107506.16878344641,553548.0592904162,256632.85036478646,150069.07583106466,173848.20268728764,554173.0140653865,554298.2061860807,TASK1
2026-04-28T10:55:41.588+00:00,983,67674,163668.6147652405,107506.70522531333,553538.336281578,256629.43054788478,150071.69098516591,173847.59919018735,554163.6933879487,554289.0196191096,TASK1
2026-04-28T10:55:41.588+00:00,983,67675,163666.26783207268,107505.69939681284,553531.1613716079,256622.5238588481,150063.44319146193,173843.64293141876,554156.250257045,554281.3082672725,TASK1
2026-04-28T10:55:41.588+00:00,983,67676,163663.38445703796,107506.50405961323,553525.0593453717,256616.69005354526,150061.63270016105,173839.6866726502,554150.1482308088,554275.4744619697,TASK1
2026-04-28T10:55:41.894+00:00,984,67677,163658.89175640245,107508.11338521402,553520.8348656696,256611.12446917588,150054.45779019088,173838.41262321622,554145.9237511067,554271.2499822676,TASK1
2026-04-28T10:55:41.894+00:00,984,67678,163654.66727670038,107508.91804801441,553511.7824091652,256604.75422200613,150046.74643835382,173834.7245853811,554136.6030736689,554261.9293048298,TASK1
2026-04-28T10:55:41.894+00:00,984,67679,163649.36991326447,107508.18044044738,553502.4617317274,256595.70176550173,150036.88931904902,173826.20857074362,554127.0141752976,554252.3404064585,TASK1
2026-04-28T10:55:41.894+00:00,984,67680,163641.12211956046,107502.88307701147,553495.0186008237,256583.9670996627,150027.83686254462,173813.6692421042,554120.3757071943,554245.7019383552,TASK1
2026-04-28T10:55:41.894+00:00,984,67681,163633.4107677234,107493.29417864015,553582.9950669998,256566.86801515438,150013.15176643748,173799.52058786398,554220.4221153762,554345.7483465371,TASK1
2026-04-28T10:55:41.894+00:00,984,67682,163626.77229962018,107482.63239653497,553853.0935469978,256557.54733771653,149992.56580979415,173785.64015455724,554487.8383860396,554613.1646172005,TASK1
2026-04-28T10:55:41.894+00:00,984,67683,163620.93849431732,107471.97061442978,553914.516140761,256548.76310214557,149977.34427182007,173771.49150031703,554540.141468065,554665.7359201594,TASK1
2026-04-28T10:55:41.894+00:00,984,67684,163614.56824714757,107465.60036726002,553897.1488353192,256537.02843630654,149964.80494318064,173756.8064042099,554522.5059416897,554648.1003937841,TASK1
2026-04-28T10:55:41.894+00:00,984,67685,163608.46622091127,107461.9123294249,553882.463739212,256526.0984332679,149954.94782387587,173743.46241277008,554507.8208455826,554633.1470767435,TASK1
2026-04-28T10:55:41.894+00:00,984,67686,163603.16885747536,107458.7607334567,553871.2655152399,256518.92352329774,149951.5280069742,173732.8006306649,554496.8908425439,554621.9488527714,TASK1
2026-04-28T10:55:41.894+00:00,984,67687,163600.55370337408,107457.21846308929,553860.0672912678,256514.43082266222,149952.3326697746,173725.08927882783,554485.6926185718,554611.2870706662,TASK1
2026-04-28T10:55:41.894+00:00,984,67688,163601.09014524103,107457.01729738919,553845.6504160941,256510.20634296018,149944.88953887098,173720.06013632537,554471.2757433981,554596.8701954925,TASK1
2026-04-28T10:55:41.894+00:00,984,67689,163601.8948080414,107455.47502702176,553829.8924362531,256504.10431672388,149939.3239545016,173714.22633102254,554455.2495426238,554580.843994718,TASK1
2026-04-28T10:55:41.894+00:00,984,67690,163598.47499113975,107452.0552101201,553817.6213285471,256498.00229048758,149933.49014919877,173706.246758252,554443.2466558513,554568.5728870122,TASK1
2026-04-28T10:55:41.894+00:00,984,67691,163596.3962789054,107448.63539321844,553807.7642092424,256492.97314798515,149931.14321603096,173697.46252268107,554433.1213156129,554558.4475467738,TASK1
2026-04-28T10:55:41.894+00:00,984,67692,163596.3962789054,107447.62956471795,553796.0295434033,256487.94400548268,149942.14027430298,173694.0427057794,554421.1184288404,554546.7128809348,TASK1
2026-04-28T10:55:41.894+00:00,984,67693,163594.58578760453,107450.31177405259,553782.41733103,256482.64664204678,149937.379352734,173692.76865634543,554407.7744374006,554533.368889495,TASK1
2026-04-28T10:55:41.894+00:00,984,67694,163593.57995910404,107452.72576245376,553768.0004558564,256476.00817394356,149936.90996610041,173691.22638597802,554393.6257831604,554518.9520143213,TASK1
2026-04-28T10:55:41.894+00:00,984,67695,163590.96480500276,107452.99398338723,553754.92468535,256468.56504303994,149939.86039636852,173691.02522027792,554380.0135707872,554505.6080228816,TASK1
2026-04-28T10:55:41.894+00:00,984,67696,163589.42253463535,107451.45171301981,553748.0179963134,256464.60878427135,149946.5659197051,173693.70742961258,554373.6433236174,554499.2377757118,TASK1
2026-04-28T10:55:41.894+00:00,984,67697,163591.30008116958,107452.2563758202,553741.915970077,256464.1393976378,149952.46678024132,173700.1447320157,554367.541297381,554493.1357494754,TASK1
2026-04-28T10:55:41.894+00:00,984,67698,163594.25051143768,107454.40214328791,553727.4990949034,256460.9878016696,149957.0265361102,173706.0455925519,554353.1244222074,554478.7188743018,TASK1
2026-04-28T10:55:41.894+00:00,984,67699,163595.32339517155,107455.74324795524,553713.0822197297,256454.0811126329,149961.31807104562,173706.58203441883,554338.4393261003,554464.3019991281,TASK1
2026-04-28T10:55:41.894+00:00,984,67700,163594.58578760453,107455.74324795524,553700.5428910903,256449.5884119974,149967.21893158183,173703.6986593841,554325.8999974609,554451.7626704887,TASK1
2026-04-28T10:55:41.894+00:00,984,67701,163595.92689227185,107457.08435262255,553690.6857717854,256448.31436256343,149972.31512931763,173705.57620591833,554316.3110990896,554442.1737721174,TASK1
2026-04-28T10:55:41.894+00:00,984,67702,163598.34088067303,107459.23012009026,553681.6333152811,256447.0403131295,149978.4842107873,173710.67240365414,554306.7222007182,554432.584873746,TASK1
2026-04-28T10:55:41.894+00:00,984,67703,163602.36419467497,107462.7169922253,553668.0211029078,256444.69337996168,149980.36175732155,173712.01350832146,554292.573546478,554418.9726613727,TASK1
2026-04-28T10:55:41.894+00:00,984,67704,163605.0464040096,107465.93564342686,553653.3360068006,256440.7371211931,149980.89819918846,173710.2030170206,554277.8884503709,554404.2875652657,TASK1
2026-04-28T10:55:41.894+00:00,984,67705,163606.32045344356,107468.28257659466,553643.6129979626,256439.86540315932,149986.39672832447,173712.01350832146,554268.4336624662,554393.7598936271,TASK1
2026-04-28T10:55:41.894+00:00,984,67706,163604.50996214268,107468.81901846158,553636.4380879925,256438.05491185846,149983.78157422322,173714.6957176561,554261.5269734296,554386.8532045905,TASK1
2026-04-28T10:55:41.894+00:00,984,67707,163605.0464040096,107468.81901846158,553626.0445268208,256438.05491185846,149988.60955102555,173717.37792699074,554251.1334122579,554376.7278643522,TASK1
2026-04-28T10:55:41.894+00:00,984,67708,163606.92395054386,107470.69656499583,553612.164093514,256438.59135372538,149991.29176036018,173720.06013632537,554237.2529789511,554362.8474310455,TASK1
2026-04-28T10:55:41.894+00:00,984,67709,163607.72861334425,107475.79276273164,553598.8201020742,256437.3173042914,149999.07016743065,173722.74234566002,554223.6407665778,554349.5034396057,TASK1
2026-04-28T10:55:41.894+00:00,984,67710,163608.26505521117,107478.74319299974,553588.158319969,256431.4834989886,150006.5803535676,173722.74234566002,554213.5154263396,554339.3780993674,TASK1
2026-04-28T10:55:41.894+00:00,984,67711,163607.25922671068,107479.27963486667,553612.0299830473,256422.43104248418,150002.62409479904,173723.27878752694,554243.5561708875,554369.6870648488,TASK1
2026-04-28T10:55:41.894+00:00,984,67712,163606.7898400771,107477.46914356579,553717.4408098985,256419.01122558254,150003.96519946636,173726.22921779504,554348.4305558718,554474.5614498331,TASK1
2026-04-28T10:55:41.894+00:00,984,67713,163608.66738661137,107476.73153599877,553745.3357869787,256420.08410931638,150008.52495533522,173725.75983116147,554370.6928933493,554496.5555663771,TASK1
2026-04-28T10:55:41.894+00:00,984,67714,163610.5449331456,107477.53619879915,553731.9917955389,256417.46895521512,150006.71446403436,173723.68111892714,554357.3489019094,554483.2115749373,TASK1
2026-04-28T10:55:41.894+00:00,984,67715,163609.0026627782,107477.53619879915,553719.9889087664,256413.78091737998,150010.7377780363,173723.47995322704,554345.0777942035,554470.9404672313,TASK1
2026-04-28T10:55:41.894+00:00,984,67716,163607.1921714773,107477.33503309907,553709.8635685281,256409.01999581102,150020.66195257448,173725.62572069475,554334.6842330318,554460.5469060596,TASK1
2026-04-28T10:55:41.894+00:00,984,67717,163606.72278484376,107479.74902150023,553699.4700073564,256406.94128357666,150020.46078687438,173729.38081376324,554324.2906718601,554449.8851239544,TASK1
2026-04-28T10:55:41.894+00:00,984,67718,163608.06388951108,107482.43123083487,553686.3942368501,256404.86257134232,150019.9914002408,173731.52658123095,554310.9466804202,554436.2729115811,TASK1
2026-04-28T10:55:41.894+00:00,984,67719,163610.20965697878,107483.23589363525,553673.3184663437,256400.63809164026,150019.52201360723,173732.5994649648,554297.8709099139,554423.1971410748,TASK1
2026-04-28T10:55:41.894+00:00,984,67720,163611.01431977918,107484.30877736911,553662.1202423716,256395.60894913782,150020.5948973411,173734.74523243253,554286.6726859418,554412.2671380362,TASK1
2026-04-28T10:55:41.894+00:00,984,67721,163611.5507616461,107486.18632390336,553651.190239333,256391.38446943575,150024.3499904096,173738.23210456755,554276.2791247701,554401.8735768645,TASK1
2026-04-28T10:55:41.894+00:00,984,67722,163614.23297098075,107489.94141697185,553639.455573494,256389.03753626795,150027.56864161114,173743.32830230336,554264.8126798645,554390.4071319589,TASK1
2026-04-28T10:55:41.894+00:00,984,67723,163618.52450591617,107494.50117284074,553625.5751401872,256389.03753626795,150031.5919556131,173749.22916283956,554251.2004674912,554376.7949195856,TASK1
2026-04-28T10:55:41.894+00:00,984,67724,163622.0113780512,107496.91516124191,553614.376916215,256390.3786409353,150032.93306028043,173751.37493030727,554239.4658016522,554365.5966956135,TASK1
2026-04-28T10:55:41.894+00:00,984,67725,163621.54199141762,107497.98804497576,553604.5197969102,256389.10459150132,150036.68815334892,173751.37493030727,554229.0722404805,554355.2031344417,TASK1
2026-04-28T10:55:41.894+00:00,984,67726,163621.74315711771,107501.27375141068,553598.8871573076,256389.30575720142,150037.96220278286,173755.86763094278,554223.6407665778,554349.2352186722,TASK1
2026-04-28T10:55:41.894+00:00,984,67727,163621.74315711771,107503.68773981187,553591.7122473373,256387.2270449671,150042.2537377183,173758.81806121088,554216.7340775412,554342.060308702,TASK1
2026-04-28T10:55:41.894+00:00,984,67728,163623.62070365198,107505.56528634611,553579.9775814983,256386.2212164666,150046.81349358716,173760.42738681167,554205.2676326355,554330.86208473,TASK1
2026-04-28T10:55:41.894+00:00,984,67729,163624.1571455189,107507.44283288036,553567.4382528589,256383.33784143184,150044.46656041936,173760.9638286786,554192.7283039961,554318.3227560906,TASK1
2026-04-28T10:55:41.894+00:00,984,67730,163621.0055495507,107509.05215848114,553557.3129126207,256380.45446639712,150045.0030022863,173763.37781707977,554182.8711846913,554307.9291949188,TASK1
2026-04-28T10:55:41.894+00:00,984,67731,163617.8539535825,107511.73436781578,553549.8697817171,256378.9121960297,150049.56275815517,173769.0104566825,554175.1598328543,554300.2178430817,TASK1
2026-04-28T10:55:41.894+00:00,984,67732,163618.12217451597,107512.53903061617,553541.8902089465,256379.44863789662,150056.53650242524,173771.42444508368,554166.6438182167,554291.7018284443,TASK1
2026-04-28T10:55:41.894+00:00,984,67733,163621.34082571752,107512.53903061617,553528.8144384401,256379.7168588301,150060.82803736065,173772.22910788405,554154.1044895774,554278.6260579379,TASK1
2026-04-28T10:55:41.894+00:00,984,67734,163621.34082571752,107513.61191435003,553517.3479935345,256377.9063675292,150059.5539879267,173774.1066544183,554142.6380446717,554266.8913920989,TASK1
2026-04-28T10:55:41.894+00:00,984,67735,163618.72567161627,107514.95301901734,553508.0273160967,256373.95010876062,150058.27993849275,173775.7159800191,554132.780925367,554257.5707146609,TASK1
2026-04-28T10:55:41.894+00:00,984,67736,163616.110517515,107514.95301901734,553501.9252898605,256369.72562905858,150058.81638035967,173779.20285215412,554126.6788991307,554251.4686884247,TASK1
2026-04-28T10:55:41.894+00:00,984,67737,163616.110517515,107514.48363238378,553493.9457170899,256367.9151377577,150056.2012262584,173781.6168405553,554118.1628844932,554242.9526737873,TASK1
2026-04-28T10:55:41.894+00:00,984,67738,163619.32916871656,107516.09295798455,553483.2839349847,256366.37286739028,150050.09920002212,173783.762608023,554107.7693233215,554232.290891682,TASK1
2026-04-28T10:55:41.894+00:00,984,67739,163619.12800301646,107519.04338825266,553472.3539319461,256363.22127142208,150049.62981338854,173782.2203376556,554097.1075412163,554221.8973305103,TASK1
2026-04-28T10:55:41.894+00:00,984,67740,163615.43996518131,107519.57983011959,553463.3014754417,256358.19212891965,150054.72601112435,173776.65475328622,554088.8597475123,554213.6495368063,TASK1
2026-04-28T10:55:41.894+00:00,984,67741,163607.46039241078,107520.38449291998,553542.6948717469,256351.01721894948,150052.11085702307,173773.50315731802,554178.9819811562,554303.5035495167,TASK1
2026-04-28T10:55:41.894+00:00,984,67742,163602.43124990835,107517.23289695178,553753.5165254493,256349.74316951554,150044.13128425254,173771.69266601713,554384.9756580562,554509.2290054833,TASK1
2026-04-28T10:55:41.894+00:00,984,67743,163600.08431674054,107511.66731258242,553782.2161653299,256347.66445728118,150036.9563742824,173768.54107004893,554406.9697746002,554531.4913429607,TASK1
2026-04-28T10:55:41.894+00:00,984,67744,163595.85983703847,107506.10172821303,553766.7264064224,256343.70819851258,150030.31790617915,173765.12125314728,554391.4800156928,554516.0015840533,TASK1
2026-04-28T10:55:41.894+00:00,984,67745,163593.2446829372,107501.34080664406,553753.9188568495,256338.67905601015,150031.390789913,173759.5556687779,554378.4042451864,554503.4622554138,TASK1
2026-04-28T10:55:41.894+00:00,984,67746,163588.75198230168,107498.72565254278,553742.9888538109,256334.18635537464,150026.0934264771,173756.4040728097,554368.5471258815,554493.068694242,TASK1
2026-04-28T10:55:41.894+00:00,984,67747,163586.67327006735,107497.18338217537,553732.5952926392,256331.83942220683,150024.01471424274,173754.8618024423,554358.1535647098,554482.6751330703,TASK1
2026-04-28T10:55:41.894+00:00,984,67748,163586.47210436725,107498.25626590922,553719.2513011993,256329.7607099725,150029.11091197858,173753.8559739418,554344.5413523365,554469.062920697,TASK1
2026-04-28T10:55:41.894+00:00,984,67749,163583.85695026597,107500.6702543104,553706.175530693,256325.8044512039,150028.1050834781,173752.8501454413,554331.4655818302,554455.9871501907,TASK1
2026-04-28T10:55:41.894+00:00,984,67750,163578.82780776353,107500.93847524386,553695.2455276544,256319.16598310068,150024.68526657642,173753.6548082417,554320.5355787915,554445.3253680855,TASK1
2026-04-28T10:55:41.894+00:00,984,67751,163578.55958683006,107504.09007121206,553687.8023967508,256312.32634929733,150029.91557477895,173754.59358150882,554313.0253926546,554438.5527895156,TASK1
2026-04-28T10:55:41.894+00:00,984,67752,163577.55375832957,107506.23583867977,553679.0181611798,256307.83364866182,150033.67066784744,173751.7102064741,554304.2411570837,554429.7685539447,TASK1
2026-04-28T10:55:41.894+00:00,984,67753,163577.08437169602,107509.72271081479,553667.5517162742,256304.68205269362,150031.0555137462,173749.0950523728,554293.311154045,554418.5703299725,TASK1
2026-04-28T10:55:41.894+00:00,984,67754,163576.07854319553,107511.33203641558,553655.2806085682,256300.9940148585,150028.4403596449,173746.748119205,554280.7718254055,554406.0310013331,TASK1
2026-04-28T10:55:41.894+00:00,984,67755,163574.53627282812,107510.32620791509,553645.4234892635,256298.11063982378,150029.51324337875,173747.28456107195,554271.1829270342,554396.4421029618,TASK1
2026-04-28T10:55:41.894+00:00,984,67756,163571.6528977934,107509.05215848114,553688.6070595512,256293.08149732134,150032.73189458033,173750.23499134005,554322.1449043923,554447.6723012533,TASK1
2026-04-28T10:55:41.894+00:00,984,67757,163572.1893396603,107509.85682128153,553832.9099217546,256290.1981222866,150035.41410391495,173750.23499134005,554464.3019991281,554589.5611750557,TASK1
2026-04-28T10:55:41.894+00:00,984,67758,163573.53044432763,107509.65565558143,553858.1226895002,256286.77830538494,150032.26250794675,173747.3516163053,554484.1503482044,554609.1413031985,TASK1
2026-04-28T10:55:41.894+00:00,984,67759,163574.33510712802,107506.77228054669,553842.0964887257,256282.28560474943,150033.33539168062,173745.8093459379,554467.3194846296,554592.8468814906,TASK1
2026-04-28T10:55:41.894+00:00,984,67760,163572.7928367606,107503.35246364503,553827.9478344856,256277.25646224697,150027.5015863778,173746.3457878048,554453.1708303894,554578.6982272504,TASK1
2026-04-28T10:55:41.894+00:00,984,67761,163570.71412452625,107502.34663514455,553817.0178314468,256273.83664534532,150021.9360020084,173747.9551134056,554442.5090482841,554567.5000032783,TASK1
2026-04-28T10:55:41.894+00:00,984,67762,163569.97651695923,107501.34080664406,553805.0149446743,256269.3439447098,150025.42287414343,173749.02799713946,554430.2379405783,554555.4971165058,TASK1
2026-04-28T10:55:41.894+00:00,984,67763,163569.50713032566,107502.41369037791,553790.5980695008,256264.58302314082,150025.22170844334,173749.2962180729,554415.5528444711,554540.5437994652,TASK1
2026-04-28T10:55:41.894+00:00,984,67764,163572.72578152723,107503.75479504523,553775.3765315267,256259.01743877144,150027.0992549776,173749.83265993986,554400.331306497,554525.5904824246,TASK1
2026-04-28T10:55:41.894+00:00,984,67765,163572.9940024607,107503.55362934513,553762.3007610203,256254.7929590694,150025.02054274324,173750.9055436737,554387.5237569241,554512.5147119182,TASK1
2026-04-28T10:55:41.894+00:00,984,67766,163569.8424064925,107504.35829214552,553751.9071998486,256250.8367003008,150021.6007258416,173753.58775300832,554376.861974819,554502.38937168,TASK1
2026-04-28T10:55:41.894+00:00,984,67767,163569.6412407924,107505.16295494592,553741.5136386768,256246.0757787318,150023.21005144238,173752.8501454413,554366.4684136473,554491.7275895748,TASK1
2026-04-28T10:55:41.894+00:00,984,67768,163570.17768265933,107504.15712644543,553728.9743100374,256239.9737524955,150030.4520166459,173748.62566573927,554353.9290850078,554479.4564818688,TASK1
2026-04-28T10:55:41.894+00:00,984,67769,163569.70829602575,107504.42534737888,553714.5574348638,256231.99417972498,150032.32956318013,173743.86474417028,554340.0486517011,554465.3078276286,TASK1
2026-04-28T10:55:41.894+00:00,984,67770,163568.16602565834,107504.22418167879,553701.7498852909,256224.81926975484,150029.4461881454,173739.1038226013,554326.7046602613,554451.9638361888,TASK1
2026-04-28T10:55:41.894+00:00,984,67771,163567.6966390248,107503.21835317831,553692.6974287864,256216.03503418388,150033.46950214735,173737.02511036696,554317.6522037569,554443.1796006178,TASK1
2026-04-28T10:55:41.894+00:00,984,67772,163569.3059646256,107504.29123691216,553683.9131932155,256210.46944981453,150037.22459521584,173737.82977316735,554309.1361891194,554434.6635859804,TASK1
2026-04-28T10:55:41.894+00:00,984,67773,163570.6470692929,107505.63234157948,553670.8374227092,256207.31785384633,150037.76103708276,173736.01928186647,554296.060418613,554421.587815474,TASK1
2026-04-28T10:55:41.894+00:00,984,67774,163570.17768265933,107504.09007121206,553657.7616522028,256201.48404854347,150035.41410391495,173731.25836029748,554282.9846481066,554408.5120449676,TASK1
2026-04-28T10:55:41.894+00:00,984,67775,163568.36719135844,107501.74313804426,553646.0269863638,256195.3820223072,150034.14005448102,173726.76565966196,554271.2499822676,554396.7773791286,TASK1
2026-04-28T10:55:41.894+00:00,984,67776,163567.62958379142,107500.20086767683,553636.7063089259,256192.49864727244,150033.13422598052,173725.75983116147,554261.9293048298,554387.4567016908,TASK1
2026-04-28T10:55:42.184+00:00,985,67777,163565.81909249054,107501.27375141068,553628.458515222,256191.2245978385,150030.2508509458,173728.44204049613,554253.4132901923,554379.2089079868,TASK1
2026-04-28T10:55:42.184+00:00,985,67778,163568.56835705854,107504.15712644543,553617.2602912498,256190.6211007382,150032.66483934695,173729.78314516344,554242.6844528537,554368.0106840146,TASK1
2026-04-28T10:55:42.184+00:00,985,67779,163568.098970425,107503.15129794493,553604.7209626103,256188.2741675704,150030.0496852457,173729.58197946334,554229.6086823473,554354.9349135082,TASK1
2026-04-28T10:55:42.184+00:00,985,67780,163566.55670005758,107501.60902757752,553593.7909595717,256185.1225716022,150030.58612711262,173730.11842133026,554218.6786793087,554343.7366895361,TASK1
2026-04-28T10:55:42.184+00:00,985,67781,163564.7462087567,107501.40786187742,553585.8113868012,256181.970975634,150031.12256897954,173728.84437189632,554210.9673274717,554336.0253376991,TASK1
2026-04-28T10:55:42.184+00:00,985,67782,163564.00860118968,107504.35829214552,553577.8318140307,256180.16048433312,150031.12256897954,173730.18547656364,554202.7195337677,554328.0457649286,TASK1
2026-04-28T10:55:42.184+00:00,985,67783,163564.27682212312,107506.77228054669,553565.5607063246,256179.4228767661,150033.26833644725,173727.30210152888,554190.9848679287,554316.0428781561,TASK1
2026-04-28T10:55:42.184+00:00,985,67784,163562.46633082224,107507.84516428056,553553.5578195521,256175.73483893098,150029.0438567452,173722.54117995992,554178.7137602227,554303.5035495167,TASK1
2026-04-28T10:55:42.184+00:00,985,67785,163558.2418511202,107508.11338521402,553544.2371421143,256167.2188242935,150026.6969235774,173716.17093279015,554169.9295246517,554295.2557558126,TASK1
2026-04-28T10:55:42.184+00:00,985,67786,163552.9444876843,107505.49823111274,553633.2864920242,256154.94771658754,150024.3499904096,173711.67823215463,554271.0488165675,554396.6432686619,TASK1
2026-04-28T10:55:42.184+00:00,985,67787,163551.9386591838,107500.73730954377,553906.3354022903,256150.72323688547,150020.393731641,173707.18553151912,554541.415517499,554666.4735277264,TASK1
2026-04-28T10:55:42.184+00:00,985,67788,163553.54798478459,107495.43994610786,553968.0262169869,256149.71740838498,150016.70569380588,173701.61994714974,554593.4503785908,554718.7766097517,TASK1
2026-04-28T10:55:42.184+00:00,985,67789,163550.9328306833,107490.14258267195,553949.5860278113,256143.61538214868,150007.385016368,173697.12724651422,554575.0101894152,554700.6046415096,TASK1
2026-04-28T10:55:42.184+00:00,985,67790,163547.24479284819,107487.52742857068,553934.6327107707,256134.83114657775,150002.35587386557,173695.8531970803,554559.7886514412,554685.1148826021,TASK1
2026-04-28T10:55:42.184+00:00,985,67791,163544.36141781346,107486.52160007019,553922.0933821313,256125.77869007335,150001.35004536508,173696.3896389472,554547.5175437352,554672.5755539626,TASK1
2026-04-28T10:55:42.184+00:00,985,67792,163544.36141781346,107486.78982100365,553908.2129488245,256118.33555916973,149999.27133313075,173695.92025231363,554533.9053313619,554659.2315625228,TASK1
2026-04-28T10:55:42.184+00:00,985,67793,163545.97074341422,107488.39914660444,553893.2596317839,256110.62420733267,150001.6853215319,173694.37798194622,554518.6837933878,554644.0100245487,TASK1
2026-04-28T10:55:42.184+00:00,985,67794,163545.76957771412,107490.27669313869,553878.0380938099,256100.23064616096,150004.90397273347,173689.3488394438,554502.9258135469,554628.5202656413,TASK1
2026-04-28T10:55:42.184+00:00,985,67795,163543.95908641326,107490.54491407215,553863.3529977028,256090.90996872308,150006.2450774008,173684.5879178748,554488.2407174398,554614.1033904676,TASK1
2026-04-28T10:55:42.184+00:00,985,67796,163542.6850369793,107491.617797806,553852.422994664,256084.80794248678,149999.3383883641,173683.85031030778,554477.3107144011,554603.173387429,TASK1
2026-04-28T10:55:42.184+00:00,985,67797,163544.56258351356,107495.90933274142,553839.0790032243,256081.11990465166,149996.1867923959,173684.65497310818,554464.2349438948,554589.8293959891,TASK1
2026-04-28T10:55:42.184+00:00,985,67798,163548.5858975155,107497.78687927566,553826.5396745849,256077.43186681654,149996.9914551963,173682.57626087382,554451.4273943219,554576.7536254828,TASK1
2026-04-28T10:55:42.184+00:00,985,67799,163549.3905603159,107497.78687927566,553811.8545784777,256074.54849178178,149998.86900173055,173677.01067650446,554436.4740772812,554561.5320875087,TASK1
2026-04-28T10:55:42.184+00:00,985,67800,163547.580069015,107498.3233211426,553798.2423661044,256071.66511674706,149996.25384762927,173673.32263866934,554422.5936439745,554547.9198751354,TASK1
2026-04-28T10:55:42.184+00:00,985,67801,163546.30601958107,107498.85976300952,553790.7992352009,256067.70885797846,149993.90691446146,173675.20018520358,554415.6869549378,554541.2814070322,TASK1
2026-04-28T10:55:42.184+00:00,985,67802,163546.30601958107,107501.00553047722,553784.428988031,256065.8983666776,149993.4375278279,173678.6870573386,554409.0484868346,554534.6429389289,TASK1
2026-04-28T10:55:42.184+00:00,985,67803,163549.25644984917,107504.49240261226,553769.7438919239,256067.50769227836,149999.3383883641,173679.22349920555,554394.3633907274,554519.9578428218,TASK1
2026-04-28T10:55:42.184+00:00,985,67804,163551.67043825032,107507.17461194689,553755.0587958167,256064.8925381771,149997.79611799668,173680.56460387286,554379.6782946204,554505.2727467146,TASK1
2026-04-28T10:55:42.184+00:00,985,67805,163552.7433219842,107505.36412064602,553742.5194671773,256057.98584914042,149995.71740576235,173680.0952172393,554366.8707450475,554492.4651971417,TASK1
2026-04-28T10:55:42.184+00:00,985,67806,163550.9328306833,107500.8714200105,553732.1259060056,256050.5427182368,150000.2771616312,173678.01650500495,554357.0136257426,554482.3398569035,TASK1
2026-04-28T10:55:42.184+00:00,985,67807,163549.9270021828,107498.79270777616,553720.1230192331,256045.51357573434,150001.35004536508,173678.2847259384,554345.0107389701,554470.336970131,TASK1
2026-04-28T10:55:42.184+00:00,985,67808,163550.1952231163,107499.32914964308,553704.901481259,256043.97130536693,149996.32090286264,173678.2847259384,554329.789200996,554455.115432157,TASK1
2026-04-28T10:55:42.184+00:00,985,67809,163551.67043825032,107502.54780084465,553690.5516613188,256040.2832675318,149993.4375278279,173680.56460387286,554315.9087676894,554441.2349988503,TASK1
2026-04-28T10:55:42.184+00:00,985,67810,163548.7870632156,107503.35246364503,553678.5487745462,256030.426148227,149993.2363621278,173680.56460387286,554304.1741018503,554429.2321120778,TASK1
2026-04-28T10:55:42.184+00:00,985,67811,163546.9765719147,107503.35246364503,553669.7645389753,256022.9830173234,149995.65035052897,173678.21767070505,554294.8534244124,554420.1796555733,TASK1
2026-04-28T10:55:42.184+00:00,985,67812,163546.2389643477,107506.03467297967,553659.3709778036,256019.29497948827,149994.37630109504,173676.9436212711,554284.1916423072,554409.7860944016,TASK1
2026-04-28T10:55:42.184+00:00,985,67813,163546.0377986476,107507.64399858046,553644.1494398295,256015.33872071968,149996.25384762927,173674.06024623636,554269.2383252666,554395.1009982944,TASK1
2026-04-28T10:55:42.184+00:00,985,67814,163544.76374921366,107508.71688231431,553629.4643437224,256010.04135728377,149995.7844609957,173672.7861968024,554254.821450093,554380.4159021873,TASK1
2026-04-28T10:55:42.184+00:00,985,67815,163539.19816484427,107507.97927474728,553617.1932360164,256003.40288918055,149991.29176036018,173671.24392643498,554242.550342387,554368.1447944813,TASK1
2026-04-28T10:55:42.184+00:00,985,67816,163534.16902234184,107506.43700437987,553651.2572945664,255995.95975827693,149991.82820222713,173669.4334351341,554284.1245870739,554409.4508182348,TASK1
2026-04-28T10:55:42.184+00:00,985,67817,163532.6267519744,107504.89473401246,553792.6097265016,255993.34460417565,149991.62703652703,173665.74539729898,554424.9405771423,554550.2668083032,TASK1
2026-04-28T10:55:42.184+00:00,985,67818,163532.6267519744,107502.27957991118,553829.8924362531,255993.14343847556,149990.88942895998,173661.25269666346,554455.2495426238,554580.5757737847,TASK1
2026-04-28T10:55:42.184+00:00,985,67819,163531.88914440738,107499.93264674337,553813.0615726783,255991.06472624122,149988.81071672565,173657.83287976182,554437.6140162485,554562.9402474094,TASK1
2026-04-28T10:55:42.184+00:00,985,67820,163531.41975777384,107497.04927170865,553798.3764765712,255983.6215953376,149985.39089982398,173656.29060939437,554422.9289201413,554548.2551513022,TASK1
2026-04-28T10:55:42.184+00:00,985,67821,163531.68797870728,107494.1658966739,553787.4464735325,255975.91024350046,149983.04396665617,173657.36349312824,554412.2671380362,554537.3251482636,TASK1
2026-04-28T10:55:42.184+00:00,985,67822,163534.10196710847,107492.6236263065,553775.44358676,255973.02686846573,149989.48126905932,173657.36349312824,554400.2642512637,554525.3222614911,TASK1
2026-04-28T10:55:42.184+00:00,985,67823,163534.63840897538,107492.4224606064,553760.2220487859,255971.48459809832,149986.86611495804,173657.36349312824,554385.310934223,554510.3689444505,TASK1
2026-04-28T10:55:42.184+00:00,985,67824,163535.9795136427,107492.4224606064,553744.1958480115,255969.13766493052,149982.64163525598,173656.35766462775,554369.552954382,554494.6109646095,TASK1
2026-04-28T10:55:42.184+00:00,985,67825,163534.97368514223,107491.95307397284,553731.1200775051,255964.644964295,149979.49003928778,173655.0836151938,554356.4771838757,554481.8034150366,TASK1
2026-04-28T10:55:42.184+00:00,985,67826,163532.35853104095,107492.75773677322,553721.7994000673,255962.56625206064,149980.83114395512,173653.54134482637,554346.6200645709,554472.2145166653,TASK1
2026-04-28T10:55:42.474+00:00,986,67827,163533.4314147748,107494.367062374,553710.8693970286,255962.36508636054,149985.12267889053,173652.80373725935,554335.6900615323,554461.5527345601,TASK1
2026-04-28T10:55:42.474+00:00,986,67828,163534.2360775752,107496.78105077517,553697.2571846553,255960.01815319274,149978.21598985384,173651.79790875886,554322.3460700924,554447.9405221868,TASK1
2026-04-28T10:55:42.474+00:00,986,67829,163533.49847000817,107498.92681824288,553683.6449722821,255953.11146415607,149979.02065265423,173650.52385932492,554308.7338577192,554434.3283098135,TASK1
2026-04-28T10:55:42.474+00:00,986,67830,163531.75503394066,107502.14546944445,553672.7820244768,255945.26600185226,149983.44629805637,173648.44514709056,554297.8709099139,554423.2641963082,TASK1
2026-04-28T10:55:42.474+00:00,986,67831,163527.79877517206,107502.68191131137,553664.5342307728,255936.74998721477,149988.27427485873,173646.90287672315,554289.8913371434,554415.0164026042,TASK1
2026-04-28T10:55:42.474+00:00,986,67832,163528.33521703898,107503.48657411177,553656.2864370687,255932.25728657926,149987.80488822516,173649.5850860578,554281.3753225058,554406.5003879666,TASK1
2026-04-28T10:55:42.474+00:00,986,67833,163530.21276357325,107505.63234157948,553642.6742246955,255929.91035341145,149986.26261785775,173651.46263259204,554267.4948891992,554393.1563965268,TASK1
2026-04-28T10:55:42.474+00:00,986,67834,163529.74337693967,107507.50988811372,553628.5255704552,255924.61298997555,149984.72034749034,173649.92036222463,554253.346234959,554379.2759632202,TASK1
2026-04-28T10:55:42.474+00:00,986,67835,163528.20110657226,107508.58277184758,553617.5955674166,255917.70630093885,149982.10519338906,173647.0369871899,554242.6844528537,554368.077739248,TASK1
2026-04-28T10:55:42.474+00:00,986,67836,163527.46349900524,107507.57694334709,553608.5431109122,255911.06783283563,149977.88071368702,173643.8853912217,554233.3637754159,554358.7570618101,TASK1
2026-04-28T10:55:42.474+00:00,986,67837,163526.99411237167,107508.38160614748,553598.6859916075,255907.91623686743,149980.29470208817,173643.6842255216,554223.5066561111,554348.8999425054,TASK1
2026-04-28T10:55:42.474+00:00,986,67838,163527.5305542386,107508.38160614748,553585.0737792342,255908.1844578009,149984.58623702358,173642.6783970211,554210.4308856047,554335.5559510655,TASK1
2026-04-28T10:55:42.474+00:00,986,67839,163528.33521703898,107507.10755671353,553572.2662296613,255905.56930369962,149989.6824347594,173639.25858011944,554197.3551150984,554322.2119596257,TASK1
2026-04-28T10:55:42.474+00:00,986,67840,163528.33521703898,107504.76062354572,553562.67733129,255899.19905652985,149994.51041156176,173636.91164695163,554187.7662167271,554312.6230612544,TASK1
2026-04-28T10:55:42.474+00:00,986,67841,163524.91540013734,107502.95013224483,553554.4295375859,255890.95126282584,149994.04102492818,173637.9845306855,554180.05486489,554304.9117094174,TASK1
2026-04-28T10:55:42.474+00:00,986,67842,163522.56846696953,107501.67608281088,553544.8406392146,255885.117457523,149997.52789706324,173640.1302981532,554170.1977455852,554295.0545901125,TASK1
2026-04-28T10:55:42.474+00:00,986,67843,163523.90957163685,107501.20669617732,553532.0330896417,255880.08831502058,149998.60078079707,173639.3926905862,554157.3901960123,554282.2470405396,TASK1
2026-04-28T10:55:42.474+00:00,986,67844,163525.51889723763,107499.93264674337,553518.4208772684,255871.84052131657,149998.60078079707,173634.89998995065,554143.777983639,554268.9030490998,TASK1
2026-04-28T10:55:42.474+00:00,986,67845,163524.24484780367,107498.92681824288,553509.368420764,255860.64229734446,149997.59495229658,173630.94373118208,554134.9937480681,554260.1188135289,TASK1
2026-04-28T10:55:42.474+00:00,986,67846,163519.48392623468,107498.92681824288,553590.37114267,255845.68898030385,149994.71157726186,173629.1332398812,554225.9206445123,554350.7774890396,TASK1
2026-04-28T10:55:42.474+00:00,986,67847,163516.3323302665,107499.19503917635,553785.0995403647,255838.24584940023,149988.34133009208,173627.3227485803,554415.5528444711,554540.141468065,TASK1
2026-04-28T10:55:42.474+00:00,986,67848,163513.71717616523,107497.116326942,553802.8021219732,255835.3624743655,149981.4346410554,173624.43937354558,554428.4274492774,554553.2842938047,TASK1
2026-04-28T10:55:42.474+00:00,986,67849,163510.56558019703,107493.9647309738,553785.9712583985,255830.0651109296,149980.96525442184,173618.60556824275,554411.5965857025,554536.7216511633,TASK1
2026-04-28T10:55:42.474+00:00,986,67850,163507.95042609575,107490.54491407215,553771.5543832248,255819.67154975788,149974.59500725206,173612.7717629399,554397.1797105288,554522.3047759896,TASK1
2026-04-28T10:55:42.474+00:00,986,67851,163505.06705106102,107490.07552743859,553760.3561592527,255808.74154671922,149971.71163221734,173613.03998387337,554386.2497074902,554511.374772951,TASK1
2026-04-28T10:55:42.474+00:00,986,67852,163505.60349292794,107491.68485303936,553747.8168306133,255801.56663674908,149969.09647811606,173613.5764257403,554373.7103788507,554499.103665245,TASK1
2026-04-28T10:55:42.474+00:00,986,67853,163507.21281852873,107493.56239957361,553732.3270717057,255796.0010523797,149971.51046651724,173612.5705972398,554357.9523990097,554483.345685404,TASK1
2026-04-28T10:55:42.474+00:00,986,67854,163506.74343189516,107492.55657107312,553720.3241849332,255789.36258427647,149976.3384433196,173608.6143384712,554345.9495122372,554471.3427986315,TASK1
2026-04-28T10:55:42.474+00:00,986,67855,163504.86588536092,107495.30583564112,553710.198844695,255782.32178477306,149976.27138808623,173603.5181407354,554335.4218405988,554461.0833479265,TASK1
2026-04-28T10:55:42.474+00:00,986,67856,163500.64140565888,107496.11049844151,553701.1463881906,255774.34221200252,149972.04690838416,173600.09832383375,554325.8329422275,554451.4944495552,TASK1
2026-04-28T10:55:42.474+00:00,986,67857,163499.09913529144,107496.91516124191,553690.7528270188,255770.38595323393,149969.69997521635,173601.1712075676,554315.9758229227,554441.9055511839,TASK1
2026-04-28T10:55:42.474+00:00,986,67858,163501.51312369262,107497.18338217537,553676.872393712,255767.77079913265,149975.06439388564,173603.04875410185,554301.558947749,554427.7568969437,TASK1
2026-04-28T10:55:42.474+00:00,986,67859,163502.31778649302,107497.7198240423,553662.187297605,255765.42386596484,149972.9856816513,173602.84758840175,554287.1420725754,554412.8035799031,TASK1
2026-04-28T10:55:42.475+00:00,986,67860,163500.7755161256,107497.98804497576,553649.916189899,255763.3451537305,149969.8340856831,173599.15955056663,554275.1391858029,554400.8006931306,TASK1
2026-04-28T10:55:42.475+00:00,986,67861,163496.55103642354,107496.44577460835,553693.3679811201,255758.0477902946,149972.51629501773,173596.00795459843,554327.9787096952,554453.3719960895,TASK1
2026-04-28T10:55:42.475+00:00,986,67862,163495.00876605613,107494.09884144054,553886.2188322805,255754.8961943264,149974.93028341891,173593.66102143063,554520.5613399221,554646.2228472498,TASK1
2026-04-28T10:55:42.475+00:00,986,67863,163493.7347166222,107490.41080360541,553946.5685423098,255753.0857030255,149974.93028341891,173590.77764639587,554572.3279800806,554698.2577083418,TASK1
2026-04-28T10:55:42.475+00:00,986,67864,163491.1195625209,107487.52742857068,553930.0058996684,255745.10613025498,149968.56003624914,173587.62605042767,554555.2288955722,554681.426844767,TASK1
2026-04-28T10:55:42.475+00:00,986,67865,163489.30907122002,107483.57116980209,553914.7843616944,255737.9312202848,149965.94488214786,173581.25580325793,554539.7391366648,554665.668864926,TASK1
2026-04-28T10:55:42.475+00:00,986,67866,163484.54814965106,107483.10178316853,553903.5861377222,255734.2431824497,149964.40261178045,173576.49488168894,554528.2726917592,554654.2024200204,TASK1
2026-04-28T10:55:42.475+00:00,986,67867,163481.93299554978,107484.7111087693,553891.0468090829,255733.77379581615,149967.62126298202,173573.87972758766,554516.2698049867,554641.9313123145,TASK1
2026-04-28T10:55:42.475+00:00,986,67868,163482.20121648326,107486.32043437009,553875.0206083084,255733.77379581615,149965.5425507477,173572.0692362868,554500.2436042122,554625.90511154,TASK1
2026-04-28T10:55:42.475+00:00,986,67869,163482.00005078316,107488.19798090434,553859.5308494009,255732.2315254487,149963.19561757988,173569.722303119,554485.0220662382,554610.9517944994,TASK1
2026-04-28T10:55:42.475+00:00,986,67870,163480.18955948227,107490.07552743859,553845.9186370276,255725.59305734548,149959.7758006782,173568.18003275158,554471.1416329314,554597.0713611926,TASK1
2026-04-28T10:55:42.475+00:00,986,67871,163478.9155100483,107491.95307397284,553834.452192122,255719.75925204266,149960.04402161168,173566.63776238414,554459.9434089593,554585.8731372205,TASK1
2026-04-28T10:55:42.475+00:00,986,67872,163479.45195191525,107494.09884144054,553821.9128634826,255719.02164447564,149959.5746349781,173564.29082921633,554447.4040803199,554573.3338085811,TASK1
2026-04-28T10:55:42.475+00:00,986,67873,163482.6706031168,107496.24460890825,553806.1548836416,255718.82047877554,149959.8428559116,173562.48033791548,554431.3778795454,554557.3076078066,TASK1
2026-04-28T10:55:42.475+00:00,986,67874,163486.69391711877,107496.04344320815,553790.9333456676,255715.40066187386,149961.72040244582,173560.93806754804,554415.8881206379,554542.0860698326,TASK1
2026-04-28T10:55:42.475+00:00,986,67875,163489.64434738687,107495.5740565746,553777.8575751611,255711.98084497222,149960.71457394533,173557.5182506464,554402.5441291981,554528.7420783928,TASK1
2026-04-28T10:55:42.475+00:00,986,67876,163489.44318168677,107495.84227750805,553769.0733395902,255710.97501647173,149955.14898957597,173556.78064307937,554394.0281145606,554520.2260637553,TASK1
2026-04-28T10:55:42.475+00:00,986,67877,163489.24201598667,107497.45160310883,553760.2891040193,255709.96918797123,149956.4900942433,173554.43370991157,554384.9756580562,554511.1736072509,TASK1
2026-04-28T10:55:42.475+00:00,986,67878,163490.85134158743,107500.13381244347,553745.8722288456,255708.15869667035,149956.75831517673,173551.28211394337,554370.5587828825,554496.4885111437,TASK1
2026-04-28T10:55:42.475+00:00,986,67879,163492.99710905514,107502.01135897772,553729.8460280711,255706.07998443602,149957.56297797713,173546.52119237438,554354.8008030416,554480.9987522362,TASK1
2026-04-28T10:55:42.475+00:00,986,67880,163494.60643465593,107501.27375141068,553715.697373831,255703.19660940126,149961.04985011215,173541.7602708054,554340.3839278679,554466.5818770626,TASK1
2026-04-28T10:55:42.475+00:00,986,67881,163495.94753932324,107500.53614384367,553703.962707992,255698.97212969922,149965.07316411412,173538.34045390374,554328.6492620289,554454.57899029,TASK1
2026-04-28T10:55:42.475+00:00,986,67882,163499.09913529144,107503.21835317831,553694.1055886871,255694.2782633636,149958.36764077752,173538.6086748372,554319.4626950577,554444.7218709852,TASK1
2026-04-28T10:55:42.475+00:00,986,67883,163501.51312369262,107503.01718747821,553680.7615972473,255687.6397952604,149958.36764077752,173535.99352073594,554306.118703618,554431.3778795454,TASK1
2026-04-28T10:55:42.475+00:00,986,67884,163501.51312369262,107501.47491711078,553666.6129430071,255679.66022248982,149961.85451291254,173533.91480850158,554291.9700493776,554417.4974462386,TASK1
2026-04-28T10:55:42.475+00:00,986,67885,163499.9708533252,107499.39620487645,553654.878277168,255670.33954505197,149962.65917571294,173533.91480850158,554280.5036044721,554405.4945594661,TASK1
2026-04-28T10:55:42.475+00:00,986,67886,163497.6239201574,107499.93264674337,553645.2893787967,255663.70107694875,149956.55714947663,173535.52413410236,554270.9147061008,554396.1738820283,TASK1
2026-04-28T10:55:42.475+00:00,986,67887,163497.4227544573,107501.00553047722,553635.1640385585,255659.20837631324,149955.01487910922,173536.86523876968,554260.7893658625,554386.0485417901,TASK1
2026-04-28T10:55:42.475+00:00,986,67888,163500.90962659233,107501.27375141068,553621.5518261852,255656.59322221196,149954.00905060873,173537.93812250355,554246.9089325558,554372.4363294168,TASK1
2026-04-28T10:55:42.475+00:00,986,67889,163504.1282777939,107498.65859730942,553608.2078347454,255654.51450997763,149953.53966397519,173536.66407306958,554233.2967201825,554359.092337977,TASK1
2026-04-28T10:55:42.475+00:00,986,67890,163505.46938246122,107496.04344320815,553596.4731689064,255648.14426280785,149957.0265361102,173535.39002363564,554222.0984962104,554347.6258930714,TASK1
2026-04-28T10:55:42.475+00:00,986,67891,163505.7376033947,107495.5740565746,553600.4964829084,255640.43291097076,149957.0265361102,173536.9993492364,554229.6086823473,554355.4043001418,TASK1
2026-04-28T10:55:42.475+00:00,986,67892,163508.15159179585,107495.3728908745,553642.3389485286,255639.42708247027,149959.4405245114,173539.41333763758,554270.6464851673,554396.4421029618,TASK1
2026-04-28T10:55:42.475+00:00,986,67893,163508.95625459624,107496.98221647527,553646.0940415971,255641.30462900453,149964.5367222472,173540.21800043798,554271.1829270342,554396.9785448287,TASK1
2026-04-28T10:55:42.475+00:00,986,67894,163506.34110049496,107498.3233211426,553632.7500501573,255638.68947490325,149954.94782387587,173538.13928820365,554257.8389355944,554383.6345533889,TASK1
2026-04-28T10:55:42.475+00:00,986,67895,163503.7259463937,107499.39620487645,553621.8200471187,255635.00143706813,149948.84579763957,173533.64658756813,554246.9089325558,554372.7045503502,TASK1
2026-04-28T10:55:42.475+00:00,986,67896,163502.9883388267,107500.20086767683,553614.913358082,255631.84984109993,149941.6708876694,173531.56787533377,554239.7340225857,554365.2614194467,TASK1
2026-04-28T10:55:42.475+00:00,986,67897,163504.59766442745,107499.73148104327,553606.129122511,255631.64867539983,149946.7670854052,173528.68450029904,554230.9497870147,554356.7454048091,TASK1
2026-04-28T10:55:42.475+00:00,986,67898,163508.62097842942,107497.116326942,553593.0533520047,255630.3746259659,149951.86328314102,173525.80112526432,554218.1422374418,554343.9378552362,TASK1
2026-04-28T10:55:42.475+00:00,986,67899,163509.4256412298,107494.7693937742,553578.9046977645,255626.68658813075,149948.9799081063,173520.5037618284,554204.261804135,554329.789200996,TASK1
2026-04-28T10:55:42.475+00:00,986,67900,163509.4256412298,107494.03178620717,553567.4382528589,255621.38922469484,149951.39389650748,173515.2063983925,554192.2589173625,554318.3227560906,TASK1
2026-04-28T10:55:42.475+00:00,986,67901,163508.15159179585,107493.56239957361,553560.7997847557,255616.62830312588,149952.19855930787,173513.93234895854,554185.3522283259,554311.9525089207,TASK1
2026-04-28T10:55:42.773+00:00,987,67902,163507.41398422883,107494.367062374,553552.2837701183,255614.54959089152,149953.53966397519,173515.54167455932,554177.1044346219,554303.1682733498,TASK1
2026-04-28T10:55:42.773+00:00,987,67903,163507.21281852873,107496.51282984171,553539.2079996119,255612.73909959066,149951.99739360777,173515.34050885923,554163.4922222486,554289.5560609765,TASK1
2026-04-28T10:55:42.773+00:00,987,67904,163504.86588536092,107499.46326010981,553526.1322291056,255607.97817802167,149946.4318092384,173515.6087297927,554150.6846726757,554277.0167323371,TASK1
2026-04-28T10:55:42.773+00:00,987,67905,163501.9825103262,107500.2679229102,553516.8115516676,255598.6575005838,149948.30935577262,173513.53001755834,554141.3639952379,554267.6960548993,TASK1
2026-04-28T10:55:42.773+00:00,987,67906,163500.9766818257,107499.79853627665,553513.391734766,255589.6050440794,149952.60089070807,173511.71952625745,554138.4806202031,554264.5444589311,TASK1
2026-04-28T10:55:42.773+00:00,987,67907,163501.7813446261,107500.60319907703,553511.0448015982,255584.30768064348,149950.79039940718,173512.2559681244,554135.5972451684,554261.9293048298,TASK1
2026-04-28T10:55:42.773+00:00,987,67908,163503.3906702269,107501.94430374436,553500.91946136,255579.81498000797,149949.51634997322,173511.2501396239,554125.4719049301,554251.8039645915,TASK1
2026-04-28T10:55:42.773+00:00,987,67909,163503.9271120938,107501.94430374436,553489.1847955209,255573.44473283822,149945.56009120462,173508.9032064561,554114.0054600246,554240.0692987525,TASK1
2026-04-28T10:55:42.773+00:00,987,67910,163498.36152772442,107501.20669617732,553480.1323390165,255564.12405540035,149944.0178208372,173505.48338955443,554104.9530035201,554231.2850631815,TASK1
2026-04-28T10:55:42.773+00:00,987,67911,163492.79594335507,107502.27957991118,553474.2985337137,255554.53515702902,149941.40266673596,173503.13645638662,554098.8509772838,554224.9148160118,TASK1
2026-04-28T10:55:42.773+00:00,987,67912,163489.64434738687,107503.35246364503,553467.1236237435,255548.96957265967,149943.01199233672,173502.3988488196,554092.2125091807,554218.2763479085,TASK1
2026-04-28T10:55:42.773+00:00,987,67913,163490.65017588733,107506.70522531333,553457.5347253722,255546.3544185584,149945.4259807379,173503.47173255344,554083.2271079096,554208.2180629036,TASK1
2026-04-28T10:55:42.773+00:00,987,67914,163492.25950148812,107505.69939681284,553446.3365014001,255541.32527605596,149945.2248150378,173502.73412498643,554071.760663004,554197.0198389315,TASK1
2026-04-28T10:55:42.773+00:00,987,67915,163492.5277224216,107505.23001017928,553437.8204867626,255534.41858701926,149943.95076560386,173500.11897088515,554062.9764274331,554188.2356033606,TASK1
2026-04-28T10:55:42.773+00:00,987,67916,163492.05833578802,107503.15129794493,553431.9866814598,255528.85300264988,149943.74959990376,173497.23559585042,554057.1426221302,554182.4017980578,TASK1
2026-04-28T10:55:42.773+00:00,987,67917,163492.3265567215,107503.68773981187,553425.3482133566,255525.70140668168,149941.40266673596,173500.18602611852,554051.040595894,554176.2997718215,TASK1
2026-04-28T10:55:42.773+00:00,987,67918,163493.39944045534,107505.02884447918,553415.7593149852,255522.81803164695,149938.78751263468,173501.7953517193,554041.1834765892,554166.4426525166,TASK1
2026-04-28T10:55:42.773+00:00,987,67919,163494.74054512268,107503.75479504523,553405.6339747469,255518.05711007796,149942.00616383625,173502.6000145197,554031.0581363509,554156.0490913449,TASK1
2026-04-28T10:55:42.773+00:00,987,67920,163494.74054512268,107504.02301597869,553398.9955066438,255512.4915257086,149940.4638934688,173501.86240695268,554024.4196682477,554149.1424023083,TASK1
2026-04-28T10:55:42.773+00:00,987,67921,163489.71140262022,107502.48074561128,553452.1032514696,255503.70729013765,149935.9711928333,173500.58835751872,554086.6469248113,554211.6378798053,TASK1
2026-04-28T10:55:42.773+00:00,987,67922,163486.29158571857,107497.45160310883,553640.930788628,255499.4828104356,149933.6242596655,173499.58252901823,554274.9380201028,554399.9289750968,TASK1
2026-04-28T10:55:42.773+00:00,987,67923,163486.29158571857,107491.08135593907,553695.6478590546,255496.3312144674,149934.69714339936,173493.7487237154,554321.8766834589,554446.331196586,TASK1
2026-04-28T10:55:42.773+00:00,987,67924,163484.4810944177,107487.92975997088,553683.6449722821,255491.30207196498,149926.98579156227,173484.696267211,554309.3373548194,554434.0600888801,TASK1
2026-04-28T10:55:42.773+00:00,987,67925,163479.18373098178,107487.46037333731,553671.6420855096,255485.20004572868,149920.07910252557,173481.00822937588,554297.334468047,554422.325423041,TASK1
2026-04-28T10:55:42.773+00:00,987,67926,163475.49569314666,107486.99098670375,553662.3214080717,255479.36624042582,149919.60971589203,173481.81289217627,554288.2820115426,554413.0047456032,TASK1
2026-04-28T10:55:42.773+00:00,987,67927,163476.83679781397,107487.52742857068,553653.2689515674,255476.21464445762,149918.60388739154,173481.81289217627,554279.2295550382,554403.9522890988,TASK1
2026-04-28T10:55:42.773+00:00,987,67928,163478.98256528168,107489.67319603839,553642.0707275952,255474.1359322233,149915.45229142334,173480.5388427423,554267.4948891992,554392.4858441933,TASK1
2026-04-28T10:55:42.773+00:00,987,67929,163480.8601118159,107489.20380940483,553628.9949570888,255470.71611532161,149914.17824198937,173476.31436304026,554254.1508977594,554379.4100736869,TASK1
2026-04-28T10:55:42.773+00:00,987,67930,163480.65894611581,107487.92975997088,553619.137837784,255464.0776472184,149912.3677506885,173470.74877867088,554244.2937784545,554369.552954382,TASK1
2026-04-28T10:55:42.773+00:00,987,67931,163478.312012948,107487.92975997088,553611.6947068805,255455.29341164746,149915.31818095662,173465.18319430153,554237.3870894178,554362.1098234784,TASK1
2026-04-28T10:55:42.773+00:00,987,67932,163476.7697425806,107488.19798090434,553603.178692243,255449.19138541116,149914.58057338957,173463.37270300064,554228.8710747804,554353.593808841,TASK1
2026-04-28T10:55:42.773+00:00,987,67933,163476.7697425806,107490.34374837205,553591.444026404,255443.35758010834,149908.47854715327,173466.32313326874,554217.1364089414,554341.5909220685,TASK1
2026-04-28T10:55:42.773+00:00,987,67934,163475.7639140801,107495.30583564112,553579.7764157982,255440.40714984023,149908.94793378684,173469.40767400357,554205.334687869,554330.5938637964,TASK1
2026-04-28T10:55:42.773+00:00,987,67935,163472.07587624498,107496.11049844151,553568.3099708927,255436.98733293856,149912.43480592186,173467.86540363615,554194.1364638968,554319.3956398243,TASK1
2026-04-28T10:55:42.773+00:00,987,67936,163468.65605934334,107496.37871937497,553585.7443315678,255432.49463230305,149905.52811688517,173466.32313326874,554216.1305804409,554341.3897563684,TASK1
2026-04-28T10:55:42.773+00:00,987,67937,163468.18667270977,107494.83644900756,553650.6537974661,255431.75702473603,149905.79633781864,173466.32313326874,554279.1624998047,554404.1534547989,TASK1
2026-04-28T10:55:42.773+00:00,987,67938,163470.33244017747,107493.56239957361,553655.2135533349,255430.4829753021,149906.60100061903,173466.5913542022,554280.7718254055,554405.7627803996,TASK1
2026-04-28T10:55:42.773+00:00,987,67939,163470.33244017747,107492.82479200659,553641.6013409616,255425.7220537331,149902.10829998352,173467.39601700258,554266.8913920989,554392.1505680264,TASK1
2026-04-28T10:55:42.773+00:00,987,67940,163466.37618140888,107492.35540537302,553629.5984541891,255418.8153646964,149901.3706924165,173464.24442103438,554254.8885053264,554380.1476812538,TASK1
2026-04-28T10:55:42.773+00:00,987,67941,163461.07881797297,107493.69651004035,553621.0824395517,255412.7133384601,149900.09664298253,173458.67883666503,554246.6407116223,554371.8998875499,TASK1
2026-04-28T10:55:42.773+00:00,987,67942,163458.19544293825,107495.84227750805,553611.7617621138,255409.29352155846,149901.70596858332,173456.86834536414,554236.7835923175,554362.0427682451,TASK1
2026-04-28T10:55:42.773+00:00,987,67943,163458.46366387172,107496.11049844151,553599.2224334744,255406.4101465237,149911.36192218802,173456.86834536414,554224.2442636781,554349.5034396057,TASK1
2026-04-28T10:55:42.773+00:00,987,67944,163458.26249817162,107495.90933274142,553587.2195467019,255400.3081202874,149907.40566341943,173452.91208659555,554212.5095978391,554337.5005528332,TASK1
2026-04-28T10:55:42.773+00:00,987,67945,163456.72022780418,107493.83062050707,553576.2895436633,255392.0603265834,149905.05873025162,173448.6876068935,554201.5795948005,554326.5705497945,TASK1
2026-04-28T10:55:42.773+00:00,987,67946,163455.44617837024,107492.0201292062,553567.7735290257,255383.54431194594,149908.54560238664,173448.95582782695,554193.3318010964,554318.3227560906,TASK1
2026-04-28T10:55:42.773+00:00,987,67947,163455.44617837024,107491.55074257264,553559.2575143883,255374.760076375,149909.6184861205,173450.83337436122,554185.0840073924,554310.0749623865,TASK1
2026-04-28T10:55:42.773+00:00,987,67948,163457.32372490448,107491.8189635061,553548.5957322831,255365.97584080405,149914.71468385632,173448.75466212686,554173.8857834203,554299.4131802813,TASK1
2026-04-28T10:55:42.773+00:00,987,67949,163458.93305050526,107492.6236263065,553536.8610664441,255357.72804710004,149907.2715529527,173448.01705455984,554162.1511175813,554287.9467353758,TASK1
2026-04-28T10:55:42.773+00:00,987,67950,163458.46366387172,107491.88601873946,553526.4675052724,255348.67559059567,149908.34443668654,173446.20656325895,554152.2939982765,554277.2849532706,TASK1
2026-04-28T10:55:42.773+00:00,987,67951,163457.72605630467,107492.15423967292,553524.1205721046,255340.15957595818,149907.0703872526,173447.27944699282,554150.2152860422,554275.4744619697,TASK1
2026-04-28T10:55:42.773+00:00,987,67952,163461.2129284397,107492.95890247331,553523.3829645375,255332.71644505457,149907.33860818605,173452.10742379515,554149.4776784751,554274.7368544027,TASK1
2026-04-28T10:55:42.773+00:00,987,67953,163465.23624244166,107492.95890247331,553512.7211824324,255325.27331415095,149907.13744248595,173452.64386566207,554138.81589637,554264.0750722975,TASK1
2026-04-28T10:55:42.773+00:00,987,67954,163467.9184517763,107491.95307397284,553501.2547375268,255316.22085764655,149904.79050931815,173448.95582782695,554127.3494514644,554252.072185525,TASK1
2026-04-28T10:55:42.773+00:00,987,67955,163465.83973954196,107493.29417864015,553492.7387228893,255308.77772674293,149903.5164598842,173446.87711559262,554118.5652158934,554243.5561708875,TASK1
2026-04-28T10:55:42.773+00:00,987,67956,163466.10796047543,107495.1717251744,553486.636696653,255304.01680517395,149901.43774764985,173443.9937405579,554112.7314105906,554237.4541446512,TASK1
2026-04-28T10:55:42.773+00:00,987,67957,163465.3703529084,107495.43994610786,553479.9982285497,255300.86520920575,149901.43774764985,173442.9879120574,554106.0929424873,554230.279234681,TASK1
2026-04-28T10:55:42.773+00:00,987,67958,163466.17501570878,107494.70233854082,553470.141109245,255299.85938070525,149905.99750351874,173442.51852542383,554095.9676022491,554220.4221153762,TASK1
2026-04-28T10:55:42.773+00:00,987,67959,163469.59483261046,107496.31166414161,553460.6863213404,255297.91477893764,149899.35903541552,173438.76343235534,554086.043427711,554210.8332170049,TASK1
2026-04-28T10:55:42.773+00:00,987,67960,163468.3207831765,107495.84227750805,553451.633864836,255289.13054336671,149894.0616719796,173431.32030145172,554076.9909712066,554202.048981434,TASK1
2026-04-28T10:55:42.773+00:00,987,67961,163465.1691872083,107494.5682280741,553445.8000595331,255282.4920752635,149894.59811384653,173425.4864961489,554071.4253868372,554196.2151761311,TASK1
2026-04-28T10:55:42.773+00:00,987,67962,163464.69980057474,107493.83062050707,553438.8933704965,255279.60870022877,149900.23075344926,173420.45735364646,554064.786918734,554189.3084870945,TASK1
2026-04-28T10:55:42.773+00:00,987,67963,163464.9680215082,107495.1717251744,553429.840913992,255277.26176706096,149900.02958774916,173418.3786414121,554055.7344622295,554180.5242515235,TASK1
2026-04-28T10:55:42.773+00:00,987,67964,163466.04090524206,107499.19503917635,553421.0566784211,255274.64661295968,149903.5164598842,173414.15416171006,554046.1455638582,554170.9353531522,TASK1
2026-04-28T10:55:42.773+00:00,987,67965,163465.30329767504,107502.41369037791,553414.1499893845,255267.4717029895,149903.04707325064,173410.73434480838,554039.7753166885,554164.296885049,TASK1
2026-04-28T10:55:42.773+00:00,987,67966,163458.93305050526,107502.41369037791,553488.4471879539,255256.80992088435,149897.48148888125,173409.46029537445,554124.8013525965,554249.5911418904,TASK1
2026-04-28T10:55:42.773+00:00,987,67967,163455.78145453706,107498.18921067586,553710.2658999283,255254.46298771654,149896.20743944732,173405.7722575393,554343.6696343028,554468.4594235967,TASK1
2026-04-28T10:55:42.773+00:00,987,67968,163454.23918416965,107491.8189635061,553753.449470216,255252.38427548218,149898.08498598155,173400.20667316995,554379.611239387,554504.401028681,TASK1
2026-04-28T10:55:42.773+00:00,987,67969,163450.81936726798,107487.32626287059,553737.691490375,255244.67292364512,149895.4698318803,173396.78685626827,554363.853259546,554488.3748279065,TASK1
2026-04-28T10:55:42.773+00:00,987,67970,163447.6677712998,107484.44288783584,553725.4203826691,255237.76623460843,149886.4173753759,173392.83059749968,554351.58215184,554476.371941134,TASK1
2026-04-28T10:55:42.773+00:00,987,67971,163444.5161753316,107483.70528026883,553716.0997052311,255232.46887117252,149886.2162096758,173389.14255966456,554341.9932534687,554466.7830427627,TASK1
2026-04-28T10:55:42.773+00:00,987,67972,163442.1692421638,107485.04638493614,553705.7061440594,255228.24439147045,149886.2162096758,173386.25918462983,554332.1361341638,554456.9259234578,TASK1
2026-04-28T10:55:42.773+00:00,987,67973,163441.69985553023,107487.99681520424,553693.7032572869,255225.36101643572,149887.5573143431,173385.5215770628,554320.1332473913,554444.654815752,TASK1
2026-04-28T10:55:42.773+00:00,987,67974,163443.04096019754,107489.87436173849,553681.9685914479,255221.94119953408,149881.99172997373,173385.78979799626,554308.1303606189,554432.6519289794,TASK1
2026-04-28T10:55:42.773+00:00,987,67975,163444.65028579833,107488.60031230454,553670.7703674758,255215.5709523643,149880.18123867287,173384.24752762885,554297.2003575802,554421.7219259407,TASK1
2026-04-28T10:55:42.773+00:00,987,67976,163444.44912009823,107487.8627047375,553662.5225737718,255210.8100307953,149882.59522707402,173382.43703632796,554288.4161220093,554413.2059113033,TASK1
2026-04-28T10:55:43.155+00:00,988,67977,163445.79022476554,107490.27669313869,553654.0065591343,255206.3173301598,149881.857619507,173381.16298689402,554279.9001073719,554404.6898966657,TASK1
2026-04-28T10:55:43.155+00:00,988,67978,163446.8631084994,107492.69068153985,553642.0036723618,255202.62929232468,149883.4669451078,173380.69360026045,554267.8972205993,554392.9552308267,TASK1
2026-04-28T10:55:43.155+00:00,988,67979,163446.12550093236,107495.64111180796,553630.0007855893,255199.74591728995,149882.19289567383,173381.23004212737,554255.6261128933,554380.9523440542,TASK1
2026-04-28T10:55:43.155+00:00,988,67980,163444.58323056495,107496.44577460835,553619.6072244176,255196.0578794548,149884.606884075,173382.5711467947,554245.2325517216,554370.2905619491,TASK1
2026-04-28T10:55:43.155+00:00,988,67981,163443.30918113102,107496.24460890825,553615.3827447155,255189.15119041814,149880.1141834395,173387.39912359705,554241.276292953,554366.0660822471,TASK1
2026-04-28T10:55:43.155+00:00,988,67982,163445.18672766525,107497.58571357557,553610.3536022131,255181.70805951452,149877.4990293382,173393.83642600017,554236.2471504506,554361.0369397446,TASK1
2026-04-28T10:55:43.155+00:00,988,67983,163448.40537886682,107497.85393450902,553597.8142735737,255174.53314954435,149877.7672502717,173395.71397253443,554223.4396008777,554348.7658320386,TASK1
2026-04-28T10:55:43.155+00:00,988,67984,163449.74648353414,107494.43411760736,553584.4702821339,255167.09001864074,149878.3036921386,173395.24458590086,554210.0956094379,554335.6900615323,TASK1
2026-04-28T10:55:43.155+00:00,988,67985,163446.8631084994,107491.55074257264,553574.3449418956,255158.03756213633,149878.1025264385,173393.16587366653,554199.9702691997,554325.0282794271,TASK1
2026-04-28T10:55:43.155+00:00,988,67986,163446.6619427993,107492.82479200659,553568.7123022929,255152.47197776698,149879.7118520393,173392.62943179958,554194.7399609971,554319.5968055244,TASK1
2026-04-28T10:55:43.155+00:00,988,67987,163446.46077709922,107494.70233854082,553562.0738341897,255150.6614864661,149878.1695816719,173392.16004516603,554188.1014928939,554313.2265583547,TASK1
2026-04-28T10:55:43.155+00:00,988,67988,163449.41120736732,107496.57988507507,553551.143831151,255148.8509951652,149876.89553223792,173395.11047543414,554176.6350479883,554302.0283343826,TASK1
2026-04-28T10:55:43.155+00:00,988,67989,163450.75231203463,107498.45743160932,553539.9456071788,255145.699399197,149875.62148280398,173400.74311503686,554165.4368240162,554290.8301104105,TASK1
2026-04-28T10:55:43.155+00:00,988,67990,163449.74648353414,107498.72565254278,553530.3567088075,255140.4020357611,149875.42031710388,173402.08421970418,554156.1161465783,554281.2412120391,TASK1
2026-04-28T10:55:43.155+00:00,988,67991,163449.00887596712,107495.5740565746,553522.377136037,255137.78688165982,149875.21915140378,173402.6206615711,554148.6730156747,554273.5298602021,TASK1
2026-04-28T10:55:43.155+00:00,988,67992,163450.08175970096,107495.10466994102,553515.4704470003,255137.58571595972,149880.58357007307,173403.69354530497,554141.4981057046,554266.354950232,TASK1
2026-04-28T10:55:43.155+00:00,988,67993,163451.69108530175,107495.90933274142,553505.0768858286,255139.1950415605,149881.92467474038,173403.69354530497,554130.8363235993,554255.9613890602,TASK1
2026-04-28T10:55:43.155+00:00,988,67994,163452.49574810214,107495.1717251744,553493.3422199896,255137.6527711931,149882.4611166073,173399.73728653637,554119.1016577603,554244.2267232211,TASK1
2026-04-28T10:55:43.155+00:00,988,67995,163450.4170358678,107496.78105077517,553484.2897634852,255132.08718682374,149873.67688103637,173398.19501616896,554110.0492012559,554235.4424876502,TASK1
2026-04-28T10:55:43.155+00:00,988,67996,163448.33832363345,107496.31166414161,553498.2372520253,255123.3029512528,149874.48154383677,173398.46323710243,554128.2882247315,554253.9497320593,TASK1
2026-04-28T10:55:43.155+00:00,988,67997,163447.33249513296,107496.57988507507,553563.9513807239,255119.88313435114,149874.7497647702,173400.0725627032,554192.6612487627,554318.3227560906,TASK1
2026-04-28T10:55:43.155+00:00,988,67998,163447.33249513296,107496.37871937497,553575.7531017963,255118.07264305025,149875.82264850408,173400.60900457014,554200.9760977002,554326.3693840944,TASK1
2026-04-28T10:55:43.155+00:00,988,67999,163446.59488756594,107493.49534434025,553563.4819940904,255113.8481633482,149876.89553223792,173396.920966735,554188.4367690607,554313.830055455,TASK1
2026-04-28T10:55:43.155+00:00,988,68000,163443.17507066426,107490.07552743859,553554.4295375859,255109.35546271267,149877.1637531714,173392.16004516603,554179.1160916229,554304.7775989505,TASK1
2026-04-28T10:55:43.155+00:00,988,68001,163440.29169562954,107487.19215240385,553546.1817438819,255105.93564581103,149879.84596250602,173389.81311199823,554171.1365188523,554296.79802618,TASK1
2026-04-28T10:55:43.155+00:00,988,68002,163438.2129833952,107485.64988203644,553537.1292873776,255105.46625917745,149881.4552881068,173390.88599573207,554161.8158414144,554287.7455696757,TASK1
2026-04-28T10:55:43.155+00:00,988,68003,163437.2071548947,107487.25920763721,553526.4675052724,255106.53914291132,149884.13749744144,173389.88016723157,554151.4222802427,554277.352008504,TASK1
2026-04-28T10:55:43.155+00:00,988,68004,163434.8602217269,107488.0638704376,553514.7328394334,255104.72865161044,149883.6681108079,173388.60611779764,554139.9558353372,554265.6173426649,TASK1
2026-04-28T10:55:43.155+00:00,988,68005,163430.3675210914,107487.05804193711,553504.3392782616,255099.96773004145,149881.857619507,173389.14255966456,554129.8304950988,554255.7602233602,TASK1
2026-04-28T10:55:43.155+00:00,988,68006,163427.2159251232,107487.32626287059,553497.9690310918,255093.86570380515,149879.5106863392,173390.48366433187,554123.4602479291,554249.3899761903,TASK1
2026-04-28T10:55:43.155+00:00,988,68007,163425.67365475578,107487.59448380405,553490.7941211216,255091.2505497039,149879.5106863392,173389.47783583138,554116.285337959,554242.2150662201,TASK1
2026-04-28T10:55:43.155+00:00,988,68008,163425.47248905568,107486.32043437009,553480.4005599499,255090.78116307032,149879.77890727267,173385.25335612934,554105.8917767872,554231.8215050484,TASK1
2026-04-28T10:55:43.155+00:00,988,68009,163426.0089309226,107485.04638493614,553469.2023359778,255089.50711363638,149878.77307877218,173384.78396949577,554094.1571109482,554220.3550601429,TASK1
2026-04-28T10:55:43.155+00:00,988,68010,163424.4666605552,107486.38748960345,553459.0769957396,255085.81907580124,149881.18706717336,173383.50992006183,554084.03177071,554209.9614989712,TASK1
2026-04-28T10:55:43.155+00:00,988,68011,163421.58328552044,107488.2650361377,553457.8029463056,255081.5945960992,149875.08504093706,173380.89476596055,554083.5623840764,554209.2238914041,TASK1
2026-04-28T10:55:43.155+00:00,988,68012,163422.11972738738,107489.0696989381,553457.8029463056,255076.8336745302,149875.88970373746,173379.08427465966,554083.3612183763,554209.022725704,TASK1
2026-04-28T10:55:43.155+00:00,988,68013,163424.801936722,107487.52742857068,553447.6776060674,255073.1456366951,149880.7176805398,173379.08427465966,554073.2358781381,554199.1656063993,TASK1
2026-04-28T10:55:43.155+00:00,988,68014,163427.2159251232,107485.98515820326,553436.4793820953,255067.84827325918,149879.98007297277,173378.0784461592,554061.7694332325,554187.9673824272,TASK1
2026-04-28T10:55:43.155+00:00,988,68015,163428.28880885703,107484.97932970278,553427.6951465243,255061.4780260894,149881.857619507,173371.70819898942,554053.2534185951,554179.1831468563,TASK1
2026-04-28T10:55:43.155+00:00,988,68016,163428.08764315693,107484.77816400268,553420.7884574877,255058.05820918776,149880.58357007307,173366.94727742043,554046.3467295583,554172.008236886,TASK1
2026-04-28T10:55:43.155+00:00,988,68017,163430.3675210914,107487.25920763721,553414.6864312513,255056.9853254539,149882.2599509072,173367.8189954542,554040.1105928553,554165.7721001831,TASK1
2026-04-28T10:55:43.155+00:00,988,68018,163431.7086257587,107491.55074257264,553404.5610910131,255056.7841597538,149876.9625874713,173365.4720622864,554030.5216944839,554155.6467599447,TASK1
2026-04-28T10:55:43.155+00:00,988,68019,163431.7086257587,107494.7693937742,553394.9721926418,255058.66170628805,149876.22497990428,173364.19801285243,554020.6645751792,554145.5214197065,TASK1
2026-04-28T10:55:43.155+00:00,988,68020,163429.89813445782,107494.7693937742,553387.5290617382,255059.19814815497,149876.7614217712,173362.9239634185,554012.6850024087,554138.0782888029,TASK1
2026-04-28T10:55:43.155+00:00,988,68021,163427.0147594231,107492.95890247331,553382.2316983022,255057.11943592064,149876.5602560711,173361.64991398453,554007.6558599062,554133.0491463004,TASK1
2026-04-28T10:55:43.155+00:00,988,68022,163426.54537278952,107492.75773677322,553375.5932301991,255056.91827022054,149874.48154383677,173360.64408548403,554001.017391803,554126.1424572638,TASK1
2026-04-28T10:55:43.155+00:00,988,68023,163428.9593611907,107493.83062050707,553365.4678899607,255059.3322586217,149875.5544275706,173359.63825698357,553990.6238306313,554115.2124542252,TASK1
2026-04-28T10:55:43.155+00:00,988,68024,163430.83690772494,107493.36123387351,553356.4154334564,255058.86287198815,149873.2074944028,173356.2184400819,553981.8395950603,554106.6964395876,TASK1
2026-04-28T10:55:43.155+00:00,988,68025,163429.29463735753,107490.47785883879,553350.3134072201,255056.24771788687,149867.1054681665,173353.8715069141,553975.737568824,554100.8626342848,TASK1
2026-04-28T10:55:43.155+00:00,988,68026,163425.87482045588,107488.93558847136,553418.9779661868,255053.6325637856,149864.22209313177,173353.670341214,554054.3263023288,554179.7195887232,TASK1
2026-04-28T10:55:43.155+00:00,988,68027,163425.4054338223,107483.90644596893,553649.6479689656,255057.65587778756,149864.02092743167,173352.93273364697,554284.4598632407,554409.853149635,TASK1
2026-04-28T10:55:43.155+00:00,988,68028,163425.4054338223,107478.07264066608,553717.5078651318,255061.14274992258,149863.81976173157,173347.9035911445,554343.2002476692,554468.5935340635,TASK1
2026-04-28T10:55:43.155+00:00,988,68029,163423.32672158798,107473.57994003057,553704.163873692,255056.91827022054,149857.18129362835,173339.92401837397,554329.588035296,554454.9813216903,TASK1
2026-04-28T10:55:43.155+00:00,988,68030,163418.83402095246,107469.35546032852,553691.892765986,255051.35268585116,149851.34748832553,173333.01732933728,554317.31692759,554442.4419930509,TASK1
2026-04-28T10:55:43.155+00:00,988,68031,163413.53665751655,107466.47208529378,553682.8403094817,255046.85998521565,149847.12300862346,173326.64708216753,554307.7280292187,554432.8530946795,TASK1
2026-04-28T10:55:43.155+00:00,988,68032,163411.9943871491,107467.00852716071,553672.7149692434,255043.44016831397,149846.92184292336,173322.69082339894,554297.6026889804,554422.7277544412,TASK1
2026-04-28T10:55:43.155+00:00,988,68033,163411.52500051557,107468.61785276148,553660.9803034044,255040.02035141233,149849.60405225802,173319.27100649726,554285.8680231414,554411.2613095357,TASK1
2026-04-28T10:55:43.155+00:00,988,68034,163409.4462882812,107468.14846612792,553648.9774166319,255034.45476704295,149846.98889815673,173314.24186399483,554274.1333573024,554399.2584227632,TASK1
2026-04-28T10:55:43.155+00:00,988,68035,163406.83113417996,107466.33797482705,553638.8520763937,255027.54807800625,149842.76441845467,173309.74916335932,554264.2762379976,554389.4013034584,TASK1
2026-04-28T10:55:43.155+00:00,988,68036,163403.41131727828,107465.86858819348,553632.2136082904,255020.3731680361,149842.29503182112,173306.0611255242,554258.1742117612,554383.0310562886,TASK1
2026-04-28T10:55:43.155+00:00,988,68037,163401.86904691087,107465.39920155992,553624.2340355199,255014.53936273328,149841.82564518755,173302.909529556,554250.1946389907,554374.7832625846,TASK1
2026-04-28T10:55:43.155+00:00,988,68038,163403.47837251166,107466.47208529378,553611.6276516471,255013.3323685327,149845.51368302267,173302.77541908924,554238.0576417515,554363.4509281458,TASK1
2026-04-28T10:55:43.155+00:00,988,68039,163404.81947717897,107466.47208529378,553598.5518811407,255010.98543536488,149840.7527614537,173300.160264988,554224.7136503117,554350.106936706,TASK1
2026-04-28T10:55:43.155+00:00,988,68040,163404.3500905454,107466.74030622725,553588.694761836,255005.68807192898,149834.11429335046,173297.5451108867,554214.8565310069,554339.9815964677,TASK1
2026-04-28T10:55:43.155+00:00,988,68041,163399.85738990988,107467.27674809417,553615.7850761157,254995.5627316907,149832.03558111613,173298.61799462058,554247.8477058229,554372.9727712837,TASK1
2026-04-28T10:55:43.155+00:00,988,68042,163396.70579394168,107467.07558239407,553706.4437516265,254989.72892638788,149834.4495695173,173298.61799462058,554336.0923929325,554461.2174583933,TASK1
2026-04-28T10:55:43.155+00:00,988,68043,163396.23640730814,107468.68490799486,553715.5632633643,254986.30910948623,149837.66822071886,173299.42265742095,554341.7250325351,554467.1183189295,TASK1
2026-04-28T10:55:43.155+00:00,988,68044,163395.23057880765,107471.90355919642,553701.6828300575,254977.25665298183,149834.51662475066,173299.69087835442,554327.576378295,554453.2378856228,TASK1
2026-04-28T10:55:43.155+00:00,988,68045,163391.81076190597,107471.43417256286,553690.4846060853,254967.6677546105,149832.43791251633,173297.07572425314,554316.3781543229,554441.7714407172,TASK1
2026-04-28T10:55:43.155+00:00,988,68046,163388.39094500433,107470.96478592929,553682.2368123814,254959.95640277342,149832.7061334498,173297.3439451866,554308.1303606189,554433.5236470131,TASK1
2026-04-28T10:55:43.155+00:00,988,68047,163386.58045370344,107471.76944872968,553673.4525768105,254954.1225974706,149832.7061334498,173295.53345388573,554299.3461250479,554424.7394114422,TASK1
2026-04-28T10:55:43.155+00:00,988,68048,163385.57462520295,107474.18343713087,553661.9861319049,254947.7523503008,149819.0939210765,173289.96786951637,554288.1479010758,554413.0047456032,TASK1
2026-04-28T10:55:43.155+00:00,988,68049,163383.49591296862,107471.83650396306,553650.2514660659,254937.3587891291,149811.11434830597,173277.16031994348,554276.6814561703,554401.5383006976,TASK1
2026-04-28T10:55:43.155+00:00,988,68050,163379.80787513347,107466.53914052715,553640.394346761,254925.3559023566,149801.7936708681,173264.35277037058,554266.8243368655,554391.6811813929,TASK1
2026-04-28T10:55:43.155+00:00,988,68051,163373.7058488972,107462.04643989162,553633.4876577243,254912.81657371717,149789.7907840956,173251.5452207977,554259.9176478288,554384.7744923561,TASK1
2026-04-28T10:55:43.155+00:00,988,68052,163370.28603199552,107459.1630648569,553624.7034221534,254901.88657067853,149778.32433919003,173238.7376712248,554250.8651913244,554375.9902567852,TASK1
2026-04-28T10:55:43.155+00:00,988,68053,163367.13443602732,107453.0610386206,553612.4323144475,254889.61546297255,149768.7354408187,173222.9796913838,554238.325862685,554363.1827072123,TASK1
2026-04-28T10:55:43.155+00:00,988,68054,163360.76418885757,107447.22723331775,553600.429427675,254874.66214593197,149752.9774609777,173207.2217115428,554226.5911968459,554351.1798204398,TASK1
2026-04-28T10:55:43.155+00:00,988,68055,163352.784616087,107443.8074164161,553589.7676455698,254858.6359451575,149738.8288067375,173195.48704570378,554215.9294147408,554340.2498174012,TASK1
2026-04-28T10:55:43.155+00:00,988,68056,163346.41436891726,107439.31471578058,553581.2516309323,254842.34152344958,149739.6334695379,173184.8252635986,554207.6816210367,554331.7338027636,TASK1
2026-04-28T10:55:43.155+00:00,988,68057,163343.5309938825,107436.16311981238,553574.3449418956,254830.3386366771,149737.822978237,173177.382132695,554200.5067110666,554324.5588927935,TASK1
2026-04-28T10:55:43.155+00:00,988,68058,163342.52516538202,107435.96195411228,553563.6831597905,254818.3357499046,149723.6743239968,173172.621211126,554190.1131498949,554314.1653316218,TASK1
2026-04-28T10:55:43.155+00:00,988,68059,163339.37356941384,107432.81035814408,553551.143831151,254804.45531659786,149720.25450709515,173164.373417422,554177.5738212555,554301.6260029824,TASK1
2026-04-28T10:55:43.155+00:00,988,68060,163333.80798504446,107430.73164590975,553541.8231537131,254793.25709262575,149717.10291112695,173155.05273998412,554168.2531438175,554292.573546478,TASK1
2026-04-28T10:55:43.155+00:00,988,68061,163328.77884254203,107430.99986684321,553535.9893484103,254784.74107798826,149713.14665235835,173147.0731672136,554162.1511175813,554286.4715202417,TASK1
2026-04-28T10:55:43.155+00:00,988,68062,163326.70013030767,107429.99403834272,553526.936891906,254777.83438895157,149712.14082385786,173142.84868751155,554153.0986610769,554277.4190637373,TASK1
2026-04-28T10:55:43.155+00:00,988,68063,163326.90129600777,107430.12814880945,553514.3975632665,254772.2688045822,149713.81720469202,173140.83703051056,554140.291111504,554265.6173426649,TASK1
2026-04-28T10:55:43.155+00:00,988,68064,163324.01792097304,107427.24477377471,553503.7357811613,254765.63033647896,149714.08542562547,173135.53966707466,554129.3611084654,554255.2237814931,TASK1
2026-04-28T10:55:43.155+00:00,988,68065,163321.40276687176,107424.62961967345,553495.4879874573,254757.9189846419,149707.98339938917,173132.11985017298,554120.8450938278,554246.4395459222,TASK1
2026-04-28T10:55:43.155+00:00,988,68066,163321.20160117166,107423.08734930604,553486.9719728198,254751.28051653868,149707.51401275562,173130.84580073904,554112.8655210573,554238.4599731517,TASK1
2026-04-28T10:55:43.155+00:00,988,68067,163322.54270583898,107423.89201210641,553478.4559581823,254745.7149321693,149707.78223368907,173131.1140216725,554104.0812854863,554229.9439585143,TASK1
2026-04-28T10:55:43.155+00:00,988,68068,163324.42025237324,107425.23311677374,553467.7941760771,254741.2222315338,149714.75597795914,173130.10819317203,554093.6877243146,554219.282176409,TASK1
