timestamp_utc,packet_index,sample_index,AF3,AF4,F3,F4,FC5,FC6,O2,O1,label
2026-05-11T11:19:54.556+00:00,996,70502,188501.78283474242,188736.27498582305,188291.16234674008,188346.1476381001,188744.9921661606,188728.0942473524,188528.87314902226,188664.79410705497,TASK2
2026-05-11T11:19:54.556+00:00,996,70503,188475.0277966294,188709.25172677657,188264.40730862707,188319.12437905365,188717.96890711415,188700.8027673725,188501.8498899758,188638.03906894196,TASK2
2026-05-11T11:19:54.556+00:00,996,70504,188476.10068036328,188710.32461051043,188265.74841329438,188320.46548372097,188718.50534898107,188701.60743017285,188502.38633184272,188638.5755108089,TASK2
2026-05-11T11:19:54.556+00:00,996,70505,188501.0452271754,188735.26915732256,188290.6929601065,188345.4100305331,188743.4498957932,188726.55197698498,188527.33087865484,188663.52005762103,TASK2
2026-05-11T11:19:54.556+00:00,996,70506,188518.21136691706,188752.43529706422,188307.59087891472,188362.3079493413,188760.61603553488,188743.4498957932,188544.4970183965,188680.6861973627,TASK2
2026-05-11T11:19:54.558+00:00,996,70507,188506.47670107803,188740.7006312252,188295.8562130757,188350.57328350228,188748.61314876238,188731.4470090207,188532.494131624,188668.6833105902,TASK2
2026-05-11T11:19:54.558+00:00,996,70508,188482.1356513662,188716.35958151336,188271.51516336386,188326.23223379045,188724.27209905055,188707.10595930886,188508.15308191217,188644.34226087836,TASK2
2026-05-11T11:19:54.558+00:00,996,70509,188484.81786070083,188719.04179084802,188274.46559363196,188328.6462221916,188726.68608745173,188709.7881686435,188510.83529124683,188647.29269114646,TASK2
2026-05-11T11:19:54.558+00:00,996,70510,188509.76240751296,188743.9863376601,188299.41014044406,188353.8589899372,188751.8988551973,188735.0009363891,188535.77983805895,188672.2372379586,TASK2
2026-05-11T11:19:54.558+00:00,996,70511,188527.1967681881,188761.42069833528,188316.84450111922,188371.02512967886,188769.33321587244,188752.16707613078,188552.67775686717,188689.67159863372,TASK2
2026-05-11T11:19:54.558+00:00,996,70512,188514.92566048214,188749.41781156277,188304.84161434672,188358.7540219729,188757.0621081665,188740.43241029175,188540.67487009466,188677.66871186122,TASK2
2026-05-11T11:19:54.558+00:00,996,70513,188491.52338403743,188726.41786651826,188281.0370065018,188335.9552426285,188733.65983172177,188717.16424431375,188518.01020121697,188654.60171158335,TASK2
2026-05-11T11:19:54.558+00:00,996,70514,188495.01025617245,188729.90473865328,188284.52387863683,188339.44211476351,188736.87848292335,188720.38289551533,188521.497073352,188657.82036278493,TASK2
2026-05-11T11:19:54.558+00:00,996,70515,188521.02768671844,188755.92216919927,188310.54130918282,188365.4595453095,188762.8959134693,188746.4003260613,188547.2462829645,188683.8377933309,TASK2
2026-05-11T11:19:54.558+00:00,996,70516,188537.12094272627,188772.551867074,188326.63456519064,188382.08924318425,188779.52561134406,188763.03002393604,188563.6077599058,188699.93104933872,TASK2
2026-05-11T11:19:54.558+00:00,996,70517,188537.65738459319,188772.82008800746,188327.43922799104,188382.62568505117,188782.74426254563,188765.98045420414,188566.82641110735,188703.41792147374,TASK2
2026-05-11T11:19:54.558+00:00,996,70518,188515.73032328254,188750.62480576336,188305.78038761384,188360.966844674,188760.5489803015,188744.0533928935,188544.63112886326,188681.4908601631,TASK2
2026-05-11T11:19:54.558+00:00,996,70519,188503.1909946431,188738.0854771239,188293.2410589744,188348.1592951011,188745.32744232746,188728.83185491944,188529.67781182265,188666.53754312248,TASK2
2026-05-11T11:19:54.558+00:00,996,70520,188528.13554145524,188763.2982448695,188317.91738485306,188373.10384191322,188770.54021007303,188753.77640173153,188554.89057956822,188691.75031086808,TASK2
2026-05-11T11:19:54.558+00:00,996,70521,188545.3016811969,188780.46438461117,188335.08352459475,188390.26998165488,188787.97457074816,188770.94254147322,188572.0567193099,188708.6482296763,TASK2
2026-05-11T11:19:54.558+00:00,996,70522,188533.03057349095,188768.19327690522,188322.81241688877,188377.99887394893,188775.43524210874,188758.67143376727,188559.5173906705,188696.37712197032,TASK2
2026-05-11T11:19:54.558+00:00,996,70523,188508.42130284564,188743.31578532647,188298.2031462435,188353.12138237018,188750.55775053,188733.7939421885,188535.17634095866,188671.76785132504,TASK2
2026-05-11T11:19:54.558+00:00,996,70524,188512.17639591414,188747.07087839497,188301.958239312,188357.14469637212,188754.58106453193,188738.0854771239,188539.46787589407,188675.79116532698,TASK2
2026-05-11T11:19:54.558+00:00,996,70525,188537.12094272627,188772.0154252071,188327.17100705756,188382.35746411773,188779.79383227753,188763.03002393604,188564.4124227062,188701.00393307256,TASK2
2026-05-11T11:19:54.558+00:00,996,70526,188552.9459778006,188788.37690214836,188343.2642630654,188398.45072012555,188795.88708828535,188778.8550590104,188580.23745778055,188716.82896814693,TASK2
2026-05-11T11:19:54.558+00:00,996,70527,188539.06554449387,188774.22824790815,188329.11560882517,188384.30206588533,188781.47021311166,188764.7064047702,188566.08880354033,188702.68031390672,TASK2
2026-05-11T11:19:54.558+00:00,996,70528,188514.99271571552,188750.1554191298,188305.04278004682,188359.9610161735,188757.12916339983,188740.63357599181,188541.7477538285,188678.3392641949,TASK2
2026-05-11T11:19:54.558+00:00,996,70529,188518.47958785054,188753.6422912648,188308.7978731153,188363.98433017544,188761.1524774018,188744.3886690603,188545.502846897,188682.09435726338,TASK2
2026-05-11T11:19:54.558+00:00,996,70530,188543.6923555961,188778.8550590104,188334.27886179436,188389.4653188545,188786.36524514738,188770.13787867283,188570.7156146426,188707.30712500896,TASK2
2026-05-11T11:19:54.558+00:00,996,70531,188561.12671627125,188795.75297781863,188351.17678060257,188406.63145859618,188803.53138488907,188787.03579748105,188587.61353345079,188724.20504381717,TASK2
2026-05-11T11:19:54.558+00:00,996,70532,188548.0509457649,188782.4089863788,188337.83278916276,188393.0192462229,188790.45561438272,188773.69180604123,188574.53776294444,188711.12927331083,TASK2
2026-05-11T11:19:54.558+00:00,996,70533,188522.10057045228,188756.9950529331,188312.41885571706,188367.33709184374,188764.77346000355,188748.00965166208,188549.12382949877,188685.71533986513,TASK2
2026-05-11T11:19:54.558+00:00,996,70534,188528.0014309885,188762.62769253584,188318.05149531979,188373.23795237995,188770.67432053975,188753.6422912648,188555.02469003497,188691.61620040133,TASK2
2026-05-11T11:19:54.558+00:00,996,70535,188556.43284993563,188790.79089054954,188346.2146933335,188401.40115039365,188798.83751855345,188782.07371021196,188583.45610898212,188719.77939841503,TASK2
2026-05-11T11:19:54.558+00:00,996,70536,188572.52610594346,188806.88414655736,188362.57617027478,188417.226185468,188814.6625536278,188798.16696621978,188599.8175859234,188735.87265442286,TASK2
2026-05-11T11:19:54.558+00:00,996,70537,188558.9138935702,188793.27193418407,188348.9639579015,188403.88219402818,188801.05034125454,188784.55475384652,188586.20537355012,188722.26044204956,TASK2
2026-05-11T11:19:54.558+00:00,996,70538,188533.4999601245,188768.12622167185,188323.5500244558,188378.20003964903,188775.63640780884,188759.4090413343,188560.79144010443,188697.11472953734,TASK2
2026-05-11T11:19:54.558+00:00,996,70539,188535.37750665876,188769.73554727263,188325.15935005658,188380.07758618327,188777.78217527654,188761.28658786853,188562.6689866387,188698.72405513813,TASK2
2026-05-11T11:19:54.558+00:00,996,70540,188562.4007657052,188797.09408248594,188351.5120567694,188406.83262429628,188804.06782675599,188788.04162598154,188588.75347241803,188725.07676185094,TASK2
2026-05-11T11:19:54.558+00:00,996,70541,188578.7622426465,188813.72378036068,188368.14175464414,188422.9258803041,188820.42930369728,188804.4031029228,188605.1149493593,188741.70645972568,TASK2
2026-05-11T11:19:54.558+00:00,996,70542,188565.4182512067,188800.64800985434,188355.33420507124,188410.1183307312,188807.3535331909,188791.059111483,188592.03917885295,188728.63068921934,TASK2
2026-05-11T11:19:54.558+00:00,996,70543,188541.61364336178,188776.57518107595,188331.26137629288,188386.31372288632,188783.81714627947,188767.2545036381,188568.23457100804,188704.55786044095,TASK2
2026-05-11T11:19:54.558+00:00,996,70544,188545.63695736372,188780.86671601137,188335.5529112283,188390.60525782173,188788.1086812149,188771.54603857352,188572.52610594346,188708.84939537637,TASK2
2026-05-11T11:19:54.558+00:00,996,70545,188571.65438790972,188806.88414655736,188361.30212084082,188416.35446743423,188813.8578908274,188797.83169005296,188598.54353648945,188734.86682592236,TASK2
2026-05-11T11:19:54.558+00:00,996,70546,188589.35696951833,188824.3185072325,188378.73648151595,188433.7888281094,188831.56047243602,188815.2660507281,188616.24611809806,188752.56940753097,TASK2
2026-05-11T11:19:54.558+00:00,996,70547,188592.57562071987,188827.80537936752,188382.22335365097,188437.54392117786,188838.2659957726,188822.23979499817,188622.95164143463,188759.27493086754,TASK2
2026-05-11T11:19:54.558+00:00,996,70548,188573.8672106108,188808.82874832497,188363.5149435419,188418.83551106878,188819.5575856635,188803.53138488907,188603.97501039208,188740.56652075847,TASK2
2026-05-11T11:19:54.558+00:00,996,70549,188556.499905169,188791.46144288318,188346.1476381001,188401.19998469355,188799.23984995365,188782.94542824573,188583.65727468222,188719.98056411513,TASK2
2026-05-11T11:19:54.558+00:00,996,70550,188580.63978918074,188815.8695478284,188370.28752211184,188425.33986870528,188823.1115130319,188806.817091324,188607.52893776048,188744.12044812687,TASK2
2026-05-11T11:19:54.558+00:00,996,70551,188596.19660332164,188831.4263619693,188385.57611531927,188441.16490377963,188838.6683271728,188822.3739054649,188623.08575190138,188759.67726226774,TASK2
2026-05-11T11:19:54.558+00:00,996,70552,188583.38905374875,188818.35059146292,188372.7685657464,188428.35735420673,188825.8607775999,188809.566355892,188610.009981395,188746.86971269487,TASK2
2026-05-11T11:19:54.558+00:00,996,70553,188559.04800403691,188794.27776268456,188348.69573696802,188404.28452542837,188801.78794882155,188785.49352711363,188585.93715261665,188722.79688391648,TASK2
2026-05-11T11:19:54.558+00:00,996,70554,188563.87598083925,188799.1057394869,188353.2554928369,188408.84428129726,188806.34770469044,188790.05328298252,188590.765129419,188727.08841885193,TASK2
2026-05-11T11:19:54.558+00:00,996,70555,188589.35696951833,188824.3185072325,188378.73648151595,188434.05704904284,188831.8286933695,188815.53427166157,188616.24611809806,188752.83762846442,TASK2
2026-05-11T11:19:54.558+00:00,996,70556,188605.18200459267,188840.41176324032,188394.82973752377,188450.15030505066,188847.9219493773,188831.89574860284,188632.60759503933,188768.6626635388,TASK2
2026-05-11T11:19:54.558+00:00,996,70557,188593.44733875364,188828.94531833474,188383.36329261822,188438.6838601451,188836.45550447173,188820.42930369728,188621.14115013377,188757.1962186332,TASK2
2026-05-11T11:19:54.558+00:00,996,70558,188568.03340530794,188804.06782675599,188358.217580106,188413.53814763288,188811.3097919595,188795.28359118506,188595.99543762155,188732.31872705446,TASK2
2026-05-11T11:19:54.558+00:00,996,70559,188571.52027744296,188807.28647795756,188361.704452241,188417.0250197679,188814.52844316108,188798.50224238663,188599.2140888231,188735.537378256,TASK2
2026-05-11T11:19:54.558+00:00,996,70560,188597.53770798896,188832.7674666366,188387.45366185353,188442.77422938042,188840.2776527736,188824.25145199912,188624.9632984356,188761.28658786853,TASK2
2026-05-11T11:19:54.558+00:00,996,70561,188613.09452212986,188848.3242807775,188403.0104759944,188458.3310435213,188855.56624598103,188839.80826614003,188640.25189164304,188776.84340200943,TASK2
2026-05-11T11:19:54.558+00:00,996,70562,188599.2140888231,188834.71206840422,188389.13004268767,188444.45061021455,188842.2222545412,188825.6596118998,188626.3714583363,188762.9629687027,TASK2
2026-05-11T11:19:54.558+00:00,996,70563,188573.80015537742,188809.566355892,188363.98433017544,188419.5731186358,188816.8083210955,188800.5138993876,188601.22574582408,188737.81725619046,TASK2
2026-05-11T11:19:54.558+00:00,996,70564,188578.09169031284,188813.053228027,188368.27586511086,188423.3282117043,188820.29519323053,188804.53721338956,188605.5172807595,188741.57234925896,TASK2
2026-05-11T11:19:54.558+00:00,996,70565,188603.84089992536,188838.80243763953,188394.29329565685,188449.34564225026,188846.58084470997,188830.28642300205,188631.266490372,188767.58977980493,TASK2
2026-05-11T11:19:54.558+00:00,996,70566,188619.93415593318,188854.62747271388,188410.1183307312,188465.4388982581,188862.6741007178,188846.11145807643,188647.35974637984,188783.41481487927,TASK2
2026-05-11T11:19:54.558+00:00,996,70567,188607.12660636028,188841.819923141,188397.3107811583,188452.36312775174,188850.13477207837,188833.572129437,188634.8204177404,188770.6072653064,TASK2
2026-05-11T11:19:54.558+00:00,996,70568,188582.51733571498,188816.94243156226,188372.70151051303,188428.0220780399,188824.98905956614,188808.9628587917,188610.2111470951,188745.9979946611,TASK2
2026-05-11T11:19:54.558+00:00,996,70569,188586.54064971695,188821.23396649768,188376.72482451497,188432.04539204185,188829.0123735681,188812.98617279367,188614.23446109708,188750.2895295965,TASK2
2026-05-11T11:19:54.558+00:00,996,70570,188613.3627430633,188848.05605984404,188403.54691786136,188458.59926445477,188855.56624598103,188839.80826614003,188640.78833350996,188776.84340200943,TASK2
2026-05-11T11:19:54.558+00:00,996,70571,188632.6746502727,188867.30091182006,188421.7859413369,188476.90534316367,188874.60993225695,188858.11434484893,188659.0273569855,188795.28359118506,TASK2
2026-05-11T11:19:54.558+00:00,996,70572,188620.13532163328,188854.76158318063,188409.5148336309,188464.36601452425,188862.33882455097,188845.5750162095,188646.48802834607,188783.01248347908,TASK2
2026-05-11T11:19:54.558+00:00,996,70573,188595.2578300545,188830.15231253533,188384.63734205216,188439.22030201202,188837.46133297222,188820.69752463073,188621.8787577008,188757.86677096688,TASK2
2026-05-11T11:19:54.558+00:00,996,70574,188599.012923123,188833.63918467035,188387.85599325373,188442.43895321357,188840.6799841738,188823.9161758323,188625.09740890234,188761.3536431019,TASK2
2026-05-11T11:19:54.558+00:00,996,70575,188624.2256908686,188858.85195241595,188413.60520286622,188467.65172095917,188866.16097285284,188849.39716451135,188650.31017664794,188786.83463178095,TASK2
2026-05-11T11:19:54.558+00:00,996,70576,188641.9282724772,188876.822754958,188431.30778447483,188485.8907444347,188883.59533352798,188867.3679670534,188668.28097919,188804.805434323,TASK2
2026-05-11T11:19:54.860+00:00,997,70577,188633.41225783972,188868.03851938708,188422.79176983738,188477.37472979721,188876.15220262436,188859.9248361498,188661.10606921985,188797.3623034194,TASK2
2026-05-11T11:19:54.860+00:00,997,70578,188609.0712081279,188843.96569060872,188398.718941059,188453.03368008538,188852.07937384598,188835.85200737143,188637.0332404415,188773.28947464103,TASK2
2026-05-11T11:19:54.860+00:00,997,70579,188609.0712081279,188843.96569060872,188398.718941059,188453.03368008538,188850.80532441204,188834.5779579375,188635.75919100753,188772.28364614054,TASK2
2026-05-11T11:19:54.860+00:00,997,70580,188636.69796427464,188871.324225822,188426.0774762723,188480.3922152987,188878.4320805588,188861.93649315077,188663.11772622084,188799.9104022873,TASK2
2026-05-11T11:19:54.860+00:00,997,70581,188653.3276621494,188887.95392369677,188442.70717414704,188497.02191317343,188895.06177843353,188878.834411959,188680.2838659625,188816.54010016206,TASK2
2026-05-11T11:19:54.860+00:00,997,70582,188640.25189164304,188874.60993225695,188429.09496177375,188483.67792173362,188881.71778699371,188865.49042051917,188666.6716535892,188803.19610872224,TASK2
2026-05-11T11:19:54.860+00:00,997,70583,188614.83795819737,188849.46421974472,188403.4128073946,188458.26398828794,188856.57207448152,188840.0764870735,188640.98949921006,188777.78217527654,TASK2
2026-05-11T11:19:54.860+00:00,997,70584,188618.3248303324,188853.21931281322,188407.1679004631,188461.75086042297,188859.79072568307,188843.56335920852,188644.4763713451,188781.26904741157,TASK2
2026-05-11T11:19:54.860+00:00,997,70585,188642.46471434413,188877.35919682495,188431.30778447483,188485.8907444347,188883.9306096948,188867.9714641537,188668.61625535684,188805.4089314233,TASK2
2026-05-11T11:19:54.860+00:00,997,70586,188655.60754008385,188890.2338016312,188444.1823892811,188499.03357017442,188897.341656368,188880.84606895997,188681.75908109656,188818.28353622957,TASK2
2026-05-11T11:19:54.860+00:00,997,70587,188641.7271067771,188876.6215892579,188430.57017690782,188485.42135780113,188883.7294439947,188866.96563565324,188667.8786477898,188804.4031029228,TASK2
2026-05-11T11:19:54.860+00:00,997,70588,188617.9224989322,188853.08520234647,188406.7655690629,188462.15319182316,188859.9248361498,188843.4292487418,188644.0740399449,188780.59849507792,TASK2
2026-05-11T11:19:54.860+00:00,997,70589,188621.94581293414,188857.37673728188,188411.05710399832,188466.44472675858,188864.21637108523,188847.45256274374,188648.63379581377,188785.1582509468,TASK2
2026-05-11T11:19:54.860+00:00,997,70590,188648.49968534705,188883.66238876132,188437.61097641123,188492.73037823802,188890.77024349812,188873.73821422318,188675.1876682267,188811.7121233597,TASK2
2026-05-11T11:19:54.860+00:00,997,70591,188665.66582508874,188900.56030756954,188455.04533708637,188510.16473891315,188908.20460417325,188890.90435396487,188692.35380796838,188828.61004216791,TASK2
2026-05-11T11:19:54.860+00:00,997,70592,188654.13232494978,188889.09386266398,188443.51183694744,188498.63123877422,188896.5369935676,188879.90729569286,188680.95441829617,188816.8083210955,TASK2
2026-05-11T11:19:54.860+00:00,997,70593,188630.86415897182,188865.825696686,188419.975450036,188475.09485186278,188873.2688275896,188856.37090878142,188657.41803138473,188793.808376051,TASK2
2026-05-11T11:19:54.860+00:00,997,70594,188635.96035670763,188870.9218944218,188425.33986870528,188480.45927053207,188878.36502532542,188861.46710651723,188662.51422912054,188798.9045737868,TASK2
2026-05-11T11:19:54.860+00:00,997,70595,188659.56379885244,188894.5253365666,188448.94331085007,188504.06271267685,188901.70024653676,188885.070548662,188686.11767126533,188822.23979499817,TASK2
2026-05-11T11:19:54.860+00:00,997,70596,188671.90196179177,188907.1317204394,188461.54969472287,188516.66909654965,188914.0384094761,188897.6769325348,188698.72405513813,188834.84617887094,TASK2
2026-05-11T11:19:54.860+00:00,997,70597,188659.36263315234,188894.5923918,188449.27858701692,188503.86154697675,188901.76730177013,188885.1376038954,188686.1847264987,188822.3068502315,TASK2
2026-05-11T11:19:54.860+00:00,997,70598,188635.0215834405,188869.98312115468,188424.40109543814,188479.52049726492,188877.4262520583,188860.79655418356,188661.84367678687,188797.96580051968,TASK2
2026-05-11T11:19:54.860+00:00,997,70599,188637.9720137086,188873.20177235626,188427.35152570624,188482.7391484665,188880.64490325988,188863.74698445166,188664.79410705497,188800.91623078779,TASK2
2026-05-11T11:19:54.860+00:00,997,70600,188663.45300238766,188898.6827610353,188452.56429345184,188508.22013714554,188906.12589193892,188888.95975219723,188690.27509573402,188826.39721946683,TASK2
2026-05-11T11:19:54.860+00:00,997,70601,188678.20515372817,188913.70313330926,188467.5846657258,188523.24050941953,188920.87804327943,188903.9801244712,188705.02724707453,188841.4175917408,TASK2
2026-05-11T11:19:54.860+00:00,997,70602,188664.05649948795,188899.55447906905,188453.70423241906,188509.09185517931,188906.99760997266,188889.831470231,188690.8785928343,188827.2689375006,TASK2
2026-05-11T11:19:54.860+00:00,997,70603,188642.39765911075,188877.89563869187,188432.04539204185,188487.70123573559,188885.60699052896,188868.44085078727,188669.48797339058,188805.87831805687,TASK2
2026-05-11T11:19:54.860+00:00,997,70604,188650.71250804813,188886.21048762923,188440.6284619127,188496.28430560642,188893.92183946632,188876.75569972466,188677.80282232797,188814.19316699426,TASK2
2026-05-11T11:19:54.860+00:00,997,70605,188679.6803688622,188915.17834844333,188469.3281017933,188525.25216642048,188922.8897002804,188905.9917814722,188706.50246220856,188843.16102780832,TASK2
2026-05-11T11:19:54.860+00:00,997,70606,188697.91939233773,188933.14915098538,188487.56712526883,188543.7594108295,188941.3969446894,188924.23080494773,188724.7414856841,188861.40005128385,TASK2
2026-05-11T11:19:54.860+00:00,997,70607,188692.0855870349,188927.58356661603,188482.00154089948,188537.92560552666,188937.17246498735,188919.73810431222,188720.51700598205,188857.17557158179,TASK2
2026-05-11T11:19:54.860+00:00,997,70608,188667.74453732307,188902.97429597072,188457.66049118765,188513.58455581483,188912.29497340857,188894.5923918,188695.90773533675,188832.29808000303,TASK2
2026-05-11T11:19:54.860+00:00,997,70609,188664.3247204214,188899.82270000252,188454.24067428597,188510.16473891315,188907.80227277306,188890.09969116448,188691.41503470123,188827.80537936752,TASK2
2026-05-11T11:19:54.860+00:00,997,70610,188687.12349976582,188922.62147934694,188476.77123269692,188532.6952973241,188930.33283118403,188912.63024957542,188713.9455931122,188850.60415871194,TASK2
2026-05-11T11:19:54.860+00:00,997,70611,188699.9981045721,188935.22786321974,188489.6458375032,188545.3016811969,188942.67099412336,188925.23663344822,188726.55197698498,188862.94232165127,TASK2
2026-05-11T11:19:54.860+00:00,997,70612,188683.70368286417,188918.93344151182,188473.35141579527,188529.00725948898,188926.37657241544,188908.67399080683,188709.9893343436,188846.64789994335,TASK2
2026-05-11T11:19:54.860+00:00,997,70613,188658.55797035195,188893.51950806612,188447.93748234957,188504.12976791023,188901.2308599032,188883.79649922808,188684.8436218314,188821.7704083646,TASK2
2026-05-11T11:19:54.860+00:00,997,70614,188662.84950528736,188897.81104300154,188452.22901728502,188508.42130284564,188905.52239483863,188888.0880341635,188689.40337770028,188826.0619433,TASK2
2026-05-11T11:19:54.860+00:00,997,70615,188689.9398195672,188925.16957821485,188479.31933156482,188535.51161712548,188932.88093005194,188915.17834844333,188716.4936919801,188853.15225757984,TASK2
2026-05-11T11:19:54.860+00:00,997,70616,188706.30129650846,188941.5310551561,188495.9490294396,188551.87309406677,188949.51062792668,188931.5398253846,188732.85516892138,188869.24551358767,TASK2
2026-05-11T11:19:54.860+00:00,997,70617,188696.10890103685,188931.00338351767,188485.95779966807,188540.80898056139,188938.6476801214,188921.81681654655,188723.06510484996,188859.12017334942,TASK2
2026-05-11T11:19:54.860+00:00,997,70618,188673.3771769258,188908.00343847316,188463.226075557,188517.80903551687,188915.64773507687,188899.0850924355,188700.06515980544,188836.1202283049,TASK2
2026-05-11T11:19:54.860+00:00,997,70619,188678.4733746616,188912.83141527552,188468.05405235937,188522.90523325268,188920.74393281268,188904.1812901713,188705.42957847472,188840.94820510724,TASK2
2026-05-11T11:19:54.860+00:00,997,70620,188705.295468008,188939.92172955535,188494.87614570573,188549.72732659907,188947.56602615907,188931.00338351767,188731.98345088764,188868.03851938708,TASK2
2026-05-11T11:19:54.860+00:00,997,70621,188723.80271241697,188958.16075303088,188513.11516918126,188567.9663500746,188965.8050496346,188949.2424069932,188749.9542534297,188886.2775428626,TASK2
2026-05-11T11:19:54.860+00:00,997,70622,188712.06804657794,188946.42608719185,188501.38050334222,188556.23168423554,188954.87504659593,188938.31240395457,188738.75602945758,188875.0793188905,TASK2
2026-05-11T11:19:54.860+00:00,997,70623,188686.11767126533,188920.47571187923,188475.4301280296,188530.28130892295,188929.1928922168,188912.0938077085,188712.80565414496,188849.12894357787,TASK2
2026-05-11T11:19:54.860+00:00,997,70624,188689.3363224669,188923.96258401425,188478.64877923118,188533.4999601245,188931.3386596845,188914.50779610965,188715.75608441306,188851.81115291253,TASK2
2026-05-11T11:19:54.860+00:00,997,70625,188714.54909021247,188949.17535175983,188503.86154697675,188558.98094880354,188956.81964836357,188939.9887847887,188740.96885215866,188877.0239206581,TASK2
2026-05-11T11:19:54.860+00:00,997,70626,188728.76479968606,188963.6592821669,188518.34547738382,188573.4648792106,188971.3035787706,188954.7409361292,188755.4527825657,188891.7760719986,TASK2
2026-05-11T11:19:54.860+00:00,997,70627,188714.34792451237,188948.97418605976,188503.92860221013,188558.51156217,188956.35026173,188939.7876190886,188740.76768645857,188877.09097589148,TASK2
2026-05-11T11:19:54.860+00:00,997,70628,188690.5433166675,188925.16957821485,188480.12399436522,188534.97517525856,188932.54565388508,188915.98301124372,188716.96307861365,188853.28636804657,TASK2
2026-05-11T11:19:54.860+00:00,997,70629,188696.71239813714,188931.3386596845,188486.02485490142,188540.87603579476,188938.4465144213,188922.15209271337,188723.13216008333,188859.18722858277,TASK2
2026-05-11T11:19:54.860+00:00,997,70630,188722.1933868162,188956.5514274301,188511.50584358047,188566.08880354033,188963.6592821669,188947.36486045897,188748.3449278289,188884.66821726182,TASK2
2026-05-11T11:19:54.860+00:00,997,70631,188738.01842189056,188972.37646250444,188527.33087865484,188581.9138386147,188979.48431724124,188963.18989553332,188764.16996290328,188900.4932523362,TASK2
2026-05-11T11:19:54.860+00:00,997,70632,188724.67443045074,188959.3006919981,188514.25510814847,188569.1062890418,188966.4085467349,188950.11412502697,188751.36241333038,188887.14926089637,TASK2
2026-05-11T11:19:54.860+00:00,997,70633,188701.40626447275,188936.0325260201,188490.71872123703,188545.83812306382,188943.1403807569,188926.84595904898,188727.55780548547,188863.88109491838,TASK2
2026-05-11T11:19:54.860+00:00,997,70634,188707.0389040755,188941.9333865563,188496.3513608398,188551.47076266658,188948.77302035966,188932.47859865174,188733.45866602167,188869.51373452114,TASK2
2026-05-11T11:19:54.860+00:00,997,70635,188732.25167182108,188967.1461543019,188521.56412858536,188576.68353041215,188973.98578810523,188957.6913663973,188758.67143376727,188894.9947232002,TASK2
2026-05-11T11:19:54.860+00:00,997,70636,188747.27204409507,188981.89830564242,188536.58450085935,188591.43568175266,188988.73793944574,188972.7117386713,188773.42358510775,188910.01509547414,TASK2
2026-05-11T11:19:54.860+00:00,997,70637,188731.51406425406,188966.4085467349,188521.36296288527,188575.94592284513,188973.2481805382,188957.22197976374,188757.93382620023,188894.7935575001,TASK2
2026-05-11T11:19:54.860+00:00,997,70638,188706.6365726753,188941.5310551561,188496.4854713065,188551.06843126638,188948.6389098929,188932.07626725154,188733.05633462148,188869.9160659213,TASK2
2026-05-11T11:19:54.860+00:00,997,70639,188711.46454947765,188946.35903195848,188501.0452271754,188555.62818713524,188953.1986657618,188936.6360231204,188737.61609049037,188874.4758217902,TASK2
2026-05-11T11:19:54.860+00:00,997,70640,188738.55486375748,188973.4493462383,188527.86732052176,188582.71850141507,188980.28898004163,188963.9945583337,188764.7064047702,188901.56613607003,TASK2
2026-05-11T11:19:54.860+00:00,997,70641,188754.11167789839,188988.73793944574,188543.42413466267,188598.54353648945,188995.84579418253,188979.5513724746,188780.26321891107,188917.12295021093,TASK2
2026-05-11T11:19:54.860+00:00,997,70642,188739.96302365817,188974.857506139,188529.5437013559,188584.66310318268,188981.96536087577,188965.93916010132,188766.38278560434,188903.51073783764,TASK2
2026-05-11T11:19:54.860+00:00,997,70643,188716.69485768018,188951.589340161,188506.00731444446,188561.12671627125,188958.42897396433,188942.40277318988,188743.11461962637,188879.9743509262,TASK2
2026-05-11T11:19:54.860+00:00,997,70644,188724.40620951727,188959.5018576982,188513.91983198165,188569.1062890418,188966.609712435,188950.2482354937,188751.16124763028,188887.55159229657,TASK2
2026-05-11T11:19:54.860+00:00,997,70645,188750.96008193018,188986.05573011108,188540.47370439456,188595.6601614547,188993.16358484788,188976.8021079066,188777.44689910972,188913.837243776,TASK2
2026-05-11T11:19:54.860+00:00,997,70646,188766.2486751376,189001.34432331854,188556.03051853544,188610.94875466215,189008.18395712186,188992.35892204748,188792.73549231715,188929.39405791688,TASK2
2026-05-11T11:19:54.860+00:00,997,70647,188751.83179996393,188986.92744814485,188541.61364336178,188596.80010042194,188994.03530288165,188977.94204687382,188778.58683807694,188914.97718274323,TASK2
2026-05-11T11:19:54.860+00:00,997,70648,188728.02719211904,188963.39106123341,188517.80903551687,188572.99549257703,188970.4989159702,188954.1374390289,188754.78223023203,188891.4407958318,TASK2
2026-05-11T11:19:54.860+00:00,997,70649,188733.12338985485,188968.48725896922,188522.63701231923,188578.09169031284,188975.59511370602,188959.23363676472,188759.87842796784,188896.5369935676,TASK2
2026-05-11T11:19:54.860+00:00,997,70650,188758.87259946737,188994.23646858174,188548.38622193172,188603.84089992536,189001.07610238506,188984.71462544377,188785.62763758036,188922.01798224665,TASK2
2026-05-11T11:19:54.860+00:00,997,70651,188773.89297174133,189009.2568408557,188563.4065942057,188618.59305126587,189016.09647465902,188999.73499771775,188800.64800985434,188936.77013358715,TASK2
2026-05-11T11:19:55.157+00:00,998,70652,188764.57229430345,188999.93616341785,188554.08591676783,188609.54059476146,189008.38512282196,188992.29186681414,188792.93665801725,188929.05878175006,TASK2
2026-05-11T11:19:55.157+00:00,998,70653,188740.23124459165,188975.32689277254,188530.01308798947,188585.46776598308,188984.31229404357,188967.9508171023,188768.8638292389,188904.9859529717,TASK2
2026-05-11T11:19:55.157+00:00,998,70654,188739.76185795807,188974.857506139,188529.27548042245,188584.99837934953,188982.23358180924,188965.87210486794,188767.053337938,188903.17546167082,TASK2
2026-05-11T11:19:55.157+00:00,998,70655,188766.0475094375,189001.4113785519,188555.82935283534,188611.28403082897,189008.78745422215,188992.15775634738,188793.07076848397,188929.72933408374,TASK2
2026-05-11T11:19:55.157+00:00,998,70656,188781.60432357842,189016.9681926928,188571.38616697624,188626.84084496988,189024.07604742958,189007.4463495548,188808.62758262487,188944.4814854242,TASK2
2026-05-11T11:19:55.157+00:00,998,70657,188767.18744840473,189002.81953845258,188557.23751273603,188612.69219072966,189009.92739318937,188993.29769531463,188794.2107074512,188930.33283118403,TASK2
2026-05-11T11:19:55.157+00:00,998,70658,188742.57817775945,188978.21026780727,188532.36002115728,188587.81469915088,188985.31812254406,188968.42020373585,188769.6014368059,188905.9917814722,TASK2
2026-05-11T11:19:55.157+00:00,998,70659,188748.47903829563,188984.37934927695,188538.52910262696,188593.98378062056,188991.21898308027,188974.857506139,188776.03873920903,188912.16086294185,TASK2
2026-05-11T11:19:55.157+00:00,998,70660,188774.49646884162,189010.12855888947,188564.27831223945,188620.00121116653,189017.23641362626,189000.87493668497,188802.056169755,188938.17829348784,TASK2
2026-05-11T11:19:55.157+00:00,998,70661,188787.37107364787,189023.0031636957,188576.88469611225,188632.60759503933,189030.1110184325,189013.48132055777,188814.93077456128,188951.0528982941,TASK2
2026-05-11T11:19:55.157+00:00,998,70662,188772.41775660726,189008.31806758858,188562.19960000511,188617.9224989322,189015.69414325882,188999.06444538408,188800.24567845414,188936.09958125348,TASK2
2026-05-11T11:19:55.157+00:00,998,70663,188748.07670689546,188983.97701787675,188538.12677122676,188593.58144922036,188991.353093547,188974.72339567225,188775.9046287423,188912.02675247513,TASK2
2026-05-11T11:19:55.157+00:00,998,70664,188751.83179996393,188987.73211094525,188541.61364336178,188596.80010042194,188995.1081866155,188978.47848874074,188779.39150087733,188915.51362461015,TASK2
2026-05-11T11:19:55.157+00:00,998,70665,188775.97168397566,189011.6037740235,188565.48530644004,188620.6717635002,189018.97984969377,189002.350151819,188803.2631639556,188939.11706675496,TASK2
2026-05-11T11:19:55.157+00:00,998,70666,188790.99205624964,189026.89236723093,188580.77389964747,188635.69213577415,189034.00022196773,189017.9069659599,188818.28353622957,188954.1374390289,TASK2
2026-05-11T11:19:55.157+00:00,998,70667,188777.37984387635,189012.74371299072,188567.1616872742,188621.8117024674,189020.38800959443,189004.02653265317,188804.67132385628,188940.25700572217,TASK2
2026-05-11T11:19:55.157+00:00,998,70668,188753.8434569649,188989.20732607928,188543.62530036276,188598.27531555598,188996.851622683,188980.49014574173,188781.13493694484,188916.72061881074,TASK2
2026-05-11T11:19:55.157+00:00,998,70669,188761.3536431019,188996.71751221627,188551.13548649973,188605.78550169297,189004.09358788654,188988.00033187872,188788.64512308183,188924.23080494773,TASK2
2026-05-11T11:19:55.157+00:00,998,70670,188792.19905045023,189027.5629195646,188581.98089384806,188636.89912997474,189034.93899523484,189018.84573922702,188819.49053043016,188955.3444332295,TASK2
2026-05-11T11:19:55.157+00:00,998,70671,188811.77917859307,189046.87482677397,188601.02458012398,188655.94281625067,189054.51912337772,189038.15764643642,188838.80243763953,188974.6563404389,TASK2
2026-05-11T11:19:55.157+00:00,998,70672,188798.97162902018,189034.33549813455,188588.48525148456,188643.40348761124,189042.24801567174,189025.88653873044,188826.2631090001,188962.11701179948,TASK2
2026-05-11T11:19:55.157+00:00,998,70673,188775.7034630422,189010.7991112231,188565.2170855066,188619.8671006998,189018.44340782682,189002.08193088556,188802.72672208867,188938.580624888,TASK2
2026-05-11T11:19:55.157+00:00,998,70674,188781.06788171147,189015.89530895892,188570.3132832424,188625.2315193691,189023.53960556263,189006.9099076879,188807.82291982448,188943.67682262385,TASK2
2026-05-11T11:19:55.157+00:00,998,70675,188807.0182570241,189041.71157380482,188596.4648242551,188651.45011561515,189049.35587040853,189032.5250068337,188833.63918467035,188969.62719793644,TASK2
2026-05-11T11:19:55.157+00:00,998,70676,188818.0153152961,189053.24507394375,188607.73010346058,188662.98361575408,189060.621149614,189044.32672790607,188844.90446387584,188981.16069807537,TASK2
2026-05-11T11:19:55.157+00:00,998,70677,188799.84334705395,189034.53666383465,188589.55813521842,188644.54342657846,189042.18096043836,189026.1547596639,188826.4642747002,188962.98872983322,TASK2
2026-05-11T11:19:55.157+00:00,998,70678,188774.69763454172,189009.39095132245,188564.14420177272,188619.39771406623,189016.7670269927,189000.74082621824,188801.05034125454,188937.57479638755,TASK2
2026-05-11T11:19:55.157+00:00,998,70679,188780.59849507792,189015.29181185862,188570.04506230893,188625.29857460244,189022.93610846237,189006.64168675445,188807.21942272419,188943.20743599028,TASK2
2026-05-11T11:19:55.157+00:00,998,70680,188807.42058842428,189042.113905205,188596.8671556553,188651.58422608188,189049.48998087525,189033.4637801008,188834.04151607055,188970.2977502701,TASK2
2026-05-11T11:19:55.157+00:00,998,70681,188822.9774025652,189057.93894027936,188612.4239697962,188666.8728192893,189064.77857408268,189049.28881517515,188849.86655114492,188985.854564411,TASK2
2026-05-11T11:19:55.157+00:00,998,70682,188820.3622484639,189055.59200711155,188610.07703662838,188664.5258861215,189064.77857408268,189049.08764947506,188849.86655114492,188985.38517777744,TASK2
2026-05-11T11:19:55.157+00:00,998,70683,188802.19028022175,189037.15181793593,188591.90506838623,188646.35391787934,189047.14304770745,189031.45212309982,188831.9628038362,188967.7496514022,TASK2
2026-05-11T11:19:55.157+00:00,998,70684,188795.55181211853,189030.24512889923,188584.99837934953,188639.71544977612,189037.8223702696,189021.8632247285,188822.64212639834,188958.6971948978,TASK2
2026-05-11T11:19:55.157+00:00,998,70685,188821.83746359797,189057.06722224562,188611.55225176242,188666.26932218904,189063.83980081556,189048.14887620794,188849.19599881125,188985.25106731072,TASK2
2026-05-11T11:19:55.157+00:00,998,70686,188836.85783587192,189072.08759451957,188626.5726240364,188681.289694463,189078.86017308952,189063.1692484819,188864.21637108523,189000.0032186512,TASK2
2026-05-11T11:19:55.157+00:00,998,70687,188821.63629789787,189057.13427747897,188611.6193069958,188666.06815648894,189063.63863511547,189048.48415237476,188848.99483311115,188985.04990161062,TASK2
2026-05-11T11:19:55.157+00:00,998,70688,188797.5634691195,189032.79322776714,188587.27825728396,188641.99532771055,189039.29758540363,189024.14310266293,188824.65378339932,188960.4406309653,TASK2
2026-05-11T11:19:55.157+00:00,998,70689,188803.19610872224,189038.4258673699,188592.9108968867,188647.6279673133,189045.19844593984,189029.7757422657,188830.28642300205,188966.07327056804,TASK2
2026-05-11T11:19:55.157+00:00,998,70690,188828.6770974013,189063.90685604894,188618.6601064992,188673.10895599236,189070.67943461888,189055.52495187818,188855.76741168112,188991.5542592471,TASK2
2026-05-11T11:19:55.157+00:00,998,70691,188842.35636500793,189077.3179027221,188631.80293223893,188686.52000266552,189084.09048129208,189068.6677776179,188869.1784583543,189004.96530592028,TASK2
2026-05-11T11:19:55.157+00:00,998,70692,188825.79372236654,189060.48703914727,188614.9720686641,188669.68913909068,189067.25961771724,189051.83691404306,188852.61581571292,188988.13444234544,TASK2
2026-05-11T11:19:55.157+00:00,998,70693,188801.18445172126,189035.877768502,188590.3627980188,188645.0798684454,189042.38212613846,189027.22764339778,188828.00654506762,188963.2569507667,TASK2
2026-05-11T11:19:55.157+00:00,998,70694,188806.817091324,189041.77862903816,188596.263658555,188650.98072898158,189048.28298667466,189033.128503934,188833.63918467035,188968.88959036942,TASK2
2026-05-11T11:19:55.157+00:00,998,70695,188834.1756265373,189069.13716425147,188623.6221937683,188678.3392641949,189075.64152188797,189060.48703914727,188860.99771988366,188996.24812558273,TASK2
2026-05-11T11:19:55.157+00:00,998,70696,188851.60998721243,189086.5715249266,188641.19066491016,188696.2430115036,189094.01465583022,189077.45201318886,188878.4320805588,189014.5542042916,TASK2
2026-05-11T11:19:55.157+00:00,998,70697,188837.46133297222,189072.4228706864,188627.31023160342,188682.09435726338,189079.59778065656,189063.5715798821,188864.01520538513,189000.4055500514,TASK2
2026-05-11T11:19:55.157+00:00,998,70698,188814.72960886118,189049.69114657535,188604.3102865589,188659.36263315234,189056.86605654552,189040.5716348376,188841.28348127406,188977.67382594035,TASK2
2026-05-11T11:19:55.157+00:00,998,70699,188821.9715740647,189057.20133271234,188611.55225176242,188666.8728192893,189064.37624268248,189048.08182097456,188848.79366741105,188985.18401207734,TASK2
2026-05-11T11:19:55.157+00:00,998,70700,188849.33010927797,189084.29164699218,188638.91078697573,188694.2313545026,189091.7347778958,189075.44035618787,188876.15220262436,189012.8107682241,TASK2
2026-05-11T11:19:55.157+00:00,998,70701,188863.81403968504,189098.7755773992,188653.39471738276,188708.71528490965,189106.21870830283,189089.9242865949,188890.6361330314,189027.29469863113,TASK2
2026-05-11T11:19:55.157+00:00,998,70702,188847.78783891056,189082.74937662476,188637.63673754176,188692.6890841352,189090.19250752838,189074.1663067539,188874.60993225695,189011.26849785668,TASK2
2026-05-11T11:19:55.157+00:00,998,70703,188823.17856826528,189058.40832691293,188613.29568782996,188668.0798134899,189065.58323688307,189049.28881517515,188850.00066161164,188986.92744814485,TASK2
2026-05-11T11:19:55.157+00:00,998,70704,188828.811207868,189063.7727455822,188618.9283274327,188673.9806740261,189071.48409741928,189055.18967571136,188855.90152214785,188992.29186681414,TASK2
2026-05-11T11:19:55.157+00:00,998,70705,188854.02397561359,189088.7172923943,188643.87287424481,188699.1934417717,189096.69686516488,189080.40244345696,188881.11428989342,189017.23641362626,TASK2
2026-05-11T11:19:55.157+00:00,998,70706,188868.50790602065,189103.20122280135,188658.08858371837,188713.40915124526,189111.1807955719,189094.61815293052,188895.329999367,189031.98856496674,TASK2
2026-05-11T11:19:55.157+00:00,998,70707,188853.82280991352,189088.51612669422,188643.40348761124,188698.45583420465,189096.2274785313,189079.39661495647,188880.3766823264,189017.03524792616,TASK2
2026-05-11T11:19:55.157+00:00,998,70708,188830.822864869,189066.05262351665,188620.6717635002,188675.45588916016,189073.49575442026,189056.93311177887,188857.64495821536,188994.3035238151,TASK2
2026-05-11T11:19:55.157+00:00,998,70709,188838.60127193943,189073.29458872016,188628.1819496372,188683.50251716407,189081.54238242417,189064.71151884933,188865.4233652858,189002.08193088556,TASK2
2026-05-11T11:19:55.157+00:00,998,70710,188866.2280280862,189100.65312393344,188655.54048485047,188710.86105237735,189108.90091763745,189091.80183312914,188893.05012143258,189029.1722451654,TASK2
2026-05-11T11:19:55.157+00:00,998,70711,188881.7848422271,189116.20993807435,188671.36551992485,188726.41786651826,189124.45773177836,189107.35864727004,188908.60693557345,189044.72905930626,TASK2
2026-05-11T11:19:55.157+00:00,998,70712,188880.24257185968,189114.9358886404,188669.8232495574,188724.87559615084,189125.53061551222,189108.96797287083,188909.41159837384,189045.80194304013,TASK2
2026-05-11T11:19:55.157+00:00,998,70713,188857.77906868208,189092.4723854628,188647.35974637984,188702.1438720398,189102.26244953423,189086.2362487598,188886.14343239588,189022.80199799562,TASK2
2026-05-11T11:19:55.157+00:00,998,70714,188849.26305404463,189083.68814989188,188638.84373174235,188693.62785740232,189091.60066742907,189075.30624572115,188875.21342935722,189012.14021589045,TASK2
2026-05-11T11:19:55.157+00:00,998,70715,188875.2804845906,189109.97380137132,188665.1293832218,188719.91350888176,189118.15453984195,189101.5918972006,188901.76730177013,189038.69408830334,TASK2
2026-05-11T11:19:55.157+00:00,998,70716,188888.6915312638,189123.11662711104,188678.80865082846,188733.32455555495,189131.56558651515,189115.27116480723,188915.44656937677,189052.10513497653,TASK2
2026-05-11T11:19:55.157+00:00,998,70717,188871.59244675547,189106.01754260273,188661.44134538667,188716.22547104664,189114.46650200684,189097.90385936544,188898.079263935,189034.4696086013,TASK2
2026-05-11T11:19:55.157+00:00,998,70718,188847.25139704364,189081.94471382437,188637.36851660832,188691.8844213348,189090.125452295,189073.5628096536,188874.00643515665,189010.3967798229,TASK2
2026-05-11T11:19:55.157+00:00,998,70719,188853.68869944676,189088.3820162275,188643.53759807796,188698.05350280448,189096.29453376468,189080.00011205676,188880.1755166263,189016.5658612926,TASK2
2026-05-11T11:19:55.157+00:00,998,70720,188878.6332462589,189113.32656303962,188668.75036582357,188723.26627055006,189121.23908057678,189104.94465886886,188905.12006343843,189041.51040810472,TASK2
2026-05-11T11:19:55.157+00:00,998,70721,188893.3853975994,189128.41399054695,188682.96607529712,188737.81725619046,189135.9912319173,189119.29447880917,188920.27454617913,189056.46372514532,TASK2
2026-05-11T11:19:55.157+00:00,998,70722,188880.30962709305,189115.3382200406,188669.89030479078,188724.7414856841,189123.18368234442,189106.4869292363,188907.19877567276,189043.38795463895,TASK2
2026-05-11T11:19:55.157+00:00,998,70723,188857.04146111506,189092.0700540626,188646.89035974626,188701.47331970613,189099.91551636643,189083.48698419178,188883.9306096948,189020.38800959443,TASK2
2026-05-11T11:19:55.157+00:00,998,70724,188864.01520538513,189098.7755773992,188653.59588308286,188708.4470639762,189106.62103970302,189090.19250752838,188890.90435396487,189027.09353293103,TASK2
2026-05-11T11:19:55.157+00:00,998,70725,188891.91018246533,189126.67055447944,188681.2226392296,188736.3420410564,189134.51601678325,189118.0874846086,188918.53111011162,189054.98851001126,TASK2
2026-05-11T11:19:55.157+00:00,998,70726,188907.19877567276,189142.2273686203,188696.51123243704,188751.63063426383,189149.80460999068,189133.37607781604,188934.0879242525,189070.2771032187,TASK2
2026-05-11T11:19:55.557+00:00,999,70727,188897.341656368,189132.10202838207,188686.65411313227,188741.77351495906,189141.82503722014,189125.39650504547,188925.8401305485,189062.02930951468,TASK2
2026-05-11T11:19:55.557+00:00,999,70728,188873.80526945656,189108.8338624041,188663.38594715428,188718.50534898107,189118.28865030868,189101.86011813403,188902.57196457052,189038.49292260324,TASK2
2026-05-11T11:19:55.557+00:00,999,70729,188874.07349039,189108.8338624041,188663.38594715428,188718.50534898107,189116.74637994127,189100.31784776662,188901.2979151366,189037.2188731693,TASK2
2026-05-11T11:19:55.557+00:00,999,70730,188900.62736280292,189135.65595575047,188689.67159863372,188745.05922139398,189143.56847328765,189126.87172017954,188927.58356661603,189063.50452464874,TASK2
2026-05-11T11:19:55.557+00:00,999,70731,188913.50196760916,189148.7987814902,188702.81442437344,188758.2020471337,189156.4430780939,189139.74632498578,188940.72639235575,189076.379129455,TASK2
2026-05-11T11:19:55.557+00:00,999,70732,188896.67110403432,189132.2361388488,188686.25178173208,188741.37118355886,189139.61221451906,189123.45190327786,188924.43197064783,189059.81648681362,TASK2
2026-05-11T11:19:55.557+00:00,999,70733,188873.13471712288,189108.16331007043,188662.44717388717,188717.56657571395,189116.07582760762,189099.91551636643,188900.35914186944,189036.28009990216,TASK2
2026-05-11T11:19:55.557+00:00,999,70734,188880.10846139296,189115.40527527395,188669.95736002416,188724.80854091747,189123.04957187767,189106.8892606365,188907.60110707296,189043.25384417223,TASK2
2026-05-11T11:19:55.557+00:00,999,70735,188906.12589193892,189141.42270581995,188695.70656963665,188750.82597146346,189149.06700242366,189132.638470249,188933.61853761895,189069.53949565167,TASK2
2026-05-11T11:19:55.557+00:00,999,70736,188920.60982234596,189155.6384152935,188709.92227911024,188765.04168093702,189163.28271189722,189146.85417972258,188948.102468026,189083.75520512526,TASK2
2026-05-11T11:19:55.557+00:00,999,70737,188904.85184250496,189140.14865638598,188694.4325202027,188749.5519220295,189147.52473205622,189131.36442081505,188932.61270911846,189067.99722528426,TASK2
2026-05-11T11:19:55.557+00:00,999,70738,188881.31545559352,189116.88049040802,188670.89613329127,188726.28375605153,189124.25656607826,189108.36447577053,188909.07632220702,189044.72905930626,TASK2
2026-05-11T11:19:55.557+00:00,999,70739,188889.6303045309,189124.92711841193,188679.21098222866,188734.33038405544,189132.30319408217,189116.67932470792,188917.12295021093,189052.77568731018,TASK2
2026-05-11T11:19:55.557+00:00,999,70740,188916.9888397442,189152.2856536252,188706.56951744194,188761.68891926872,189159.66172929548,189144.0378599212,188944.4814854242,189080.13422252348,TASK2
2026-05-11T11:19:55.557+00:00,999,70741,188930.9363282843,189166.23314216532,188720.51700598205,188775.63640780884,189173.60921783556,189157.9853484613,188958.6971948978,189094.0817110636,TASK2
2026-05-11T11:19:55.557+00:00,999,70742,188913.837243776,189149.134057657,188703.1497005403,188758.26910236708,189156.77835426072,189141.15448488647,188941.5981103895,189077.25084748876,TASK2
2026-05-11T11:19:55.557+00:00,999,70743,188891.3737405984,189126.40233354596,188680.6861973627,188735.80559918948,189133.77840921623,189118.42276077543,188919.13460721192,189054.51912337772,TASK2
2026-05-11T11:19:55.557+00:00,999,70744,188898.8839267354,189133.91251968296,188688.1963834997,188743.58400625992,189141.2885953532,189125.93294691242,188926.64479334888,189062.02930951468,TASK2
2026-05-11T11:19:55.557+00:00,999,70745,188924.90135728137,189160.1981711624,188714.48203497913,188769.6014368059,189167.57424683264,189151.9503774584,188952.3940029614,189088.04674006067,TASK2
2026-05-11T11:19:55.557+00:00,999,70746,188937.77596208765,189173.07277596864,188727.35663978537,188782.47604161216,189180.71707257236,189165.0932031981,188965.53682870112,189101.1895658004,TASK2
2026-05-11T11:19:55.557+00:00,999,70747,188921.21331944625,189155.97369146033,188710.25755527706,188765.37695710384,189163.61798806404,189147.9941186898,188948.4377441928,189084.09048129208,TASK2
2026-05-11T11:19:55.557+00:00,999,70748,188899.42036860232,189134.11368538305,188688.79988059998,188743.51695102657,189141.62387152005,189125.53061551222,188926.24246194868,189062.63280661497,TASK2
2026-05-11T11:19:55.557+00:00,999,70749,188907.46699660624,189142.16031338696,188696.8465086039,188751.56357903048,189149.9387204574,189133.30902258266,188934.02086901915,189070.41121368544,TASK2
2026-05-11T11:19:55.557+00:00,999,70750,188933.75264808568,189168.4459648664,188723.13216008333,188777.84923050992,189176.22437193684,189159.32645312863,188960.3065204986,189096.69686516488,TASK2
2026-05-11T11:19:55.557+00:00,999,70751,188947.43191569232,189182.39345340652,188736.81142768997,188791.52849811656,189189.90363954348,189173.27394166874,188974.2540090387,189110.37613277152,TASK2
2026-05-11T11:19:55.557+00:00,999,70752,188930.60105211748,189165.83081076512,188719.71234318166,188774.69763454172,189173.07277596864,189156.17485716043,188957.42314546384,189093.2770482632,TASK2
2026-05-11T11:19:55.557+00:00,999,70753,188906.7964442726,189142.0262029202,188696.17595627022,188750.8930266968,189148.99994719028,189132.638470249,188933.61853761895,189069.74066135177,TASK2
2026-05-11T11:19:55.557+00:00,999,70754,188915.11129320995,189150.07283092412,188704.4908052076,188759.2078756342,189157.31479612767,189140.95331918637,188941.9333865563,189078.3237312226,TASK2
2026-05-11T11:19:55.557+00:00,999,70755,188942.46982842326,189177.43136613743,188731.8493404209,188786.29818991403,189184.67333134095,189168.31185439965,188969.29192176962,189105.41404550243,TASK2
2026-05-11T11:19:55.557+00:00,999,70756,188957.22197976374,189192.18351747794,188746.6014917614,188801.05034125454,189199.42548268146,189183.06400574016,188984.31229404357,189120.16619684294,TASK2
2026-05-11T11:19:55.557+00:00,999,70757,188952.1928372613,189187.15437497548,188741.8405701924,188796.28941968555,189197.07854951365,189180.98529350583,188981.69713994232,189117.81926367513,TASK2
2026-05-11T11:19:55.557+00:00,999,70758,188932.94798528528,189167.9095229995,188722.59571821638,188777.04456770953,189177.83369753763,189161.7404415298,188962.4522879663,189098.5744116991,TASK2
2026-05-11T11:19:55.557+00:00,999,70759,188927.11417998245,189162.07571769663,188716.76191291356,188771.2107624067,189169.31768290015,189153.4926478258,188954.2044942623,189090.05839706163,TASK2
2026-05-11T11:19:55.557+00:00,999,70760,188953.3998314619,189188.09314824262,188743.047564393,188797.22819295267,189195.6033343796,189179.77829930524,188980.22192480825,189116.07582760762,TASK2
2026-05-11T11:19:55.557+00:00,999,70761,188966.27443626814,189201.23597398234,188755.6539482658,188810.37101869239,189208.47793918586,189192.65290411148,188993.09652961453,189129.21865334734,TASK2
2026-05-11T11:19:55.557+00:00,999,70762,188949.17535175983,189184.13688947403,188738.55486375748,188793.27193418407,189191.64707561102,189175.5538196032,188975.72922417274,189112.3877897725,TASK2
2026-05-11T11:19:55.557+00:00,999,70763,188925.37074391494,189160.33228162912,188714.75025591257,188769.4673263392,189167.57424683264,189151.7492117583,188952.1928372613,189088.5831819276,TASK2
2026-05-11T11:19:55.557+00:00,999,70764,188932.344488185,189167.57424683264,188721.9922211161,188776.44107060923,189174.5479911027,189158.9911769618,188959.43480246482,189095.8251471311,TASK2
2026-05-11T11:19:55.557+00:00,999,70765,188958.0936977975,189193.32345644516,188747.7414307286,188802.19028022175,189200.02897978175,189184.47216564085,188985.18401207734,189121.30613581015,TASK2
2026-05-11T11:19:55.557+00:00,999,70766,188972.04118633762,189207.27094498527,188761.9571402022,188816.4059896953,189213.97646832187,189198.41965418097,188999.13150061746,189135.25362435027,TASK2
2026-05-11T11:19:55.557+00:00,999,70767,188955.47854369623,189190.44008141043,188745.3944975608,188799.57512612047,189197.68204661395,189182.12523247304,188982.56885797606,189118.42276077543,TASK2
2026-05-11T11:19:55.557+00:00,999,70768,188932.47859865174,189167.7083572994,188722.39455251629,188776.57518107595,189174.9503225029,189159.12528742853,188959.83713386502,189095.6910366644,TASK2
2026-05-11T11:19:55.557+00:00,999,70769,188941.5981103895,189176.82786903714,188731.51406425406,188785.42647188026,189183.8016133072,189167.97657823283,188968.68842466932,189104.5423274687,TASK2
2026-05-11T11:19:55.557+00:00,999,70770,188969.49308746972,189204.72284611737,188759.67726226774,188813.58966989396,189211.6965903874,189196.13977624653,188996.58340174955,189132.4373045489,TASK2
2026-05-11T11:19:55.557+00:00,999,70771,188983.97701787675,189219.2067765244,188774.1611926748,188828.34182123444,189225.912299861,189210.62370665357,189011.06733215658,189147.1894558894,TASK2
2026-05-11T11:19:55.557+00:00,999,70772,188966.07327056804,189201.57125014917,188755.98922443262,188810.43807392576,189208.27677348576,189192.71995934486,188993.43180578135,189129.2857085807,TASK2
2026-05-11T11:19:55.557+00:00,999,70773,188942.5368836566,189177.76664230425,188732.45283752118,188786.90168701432,189184.47216564085,189169.18357243342,188969.62719793644,189105.4811007358,TASK2
2026-05-11T11:19:55.557+00:00,999,70774,188951.3881744609,189186.61793310856,188741.035907392,188795.75297781863,189193.59167737863,189178.03486323773,188978.47848874074,189114.3323915401,TASK2
2026-05-11T11:19:55.557+00:00,999,70775,188977.67382594035,189213.17180552147,188767.58977980493,188822.03862929807,189220.14554979152,189204.8569565841,189005.03236115366,189141.15448488647,TASK2
2026-05-11T11:19:55.557+00:00,999,70776,188989.74376794623,189224.97352659388,188779.6597218108,188834.10857130392,189232.2154917974,189216.92689858997,189016.83408222607,189152.95620595888,TASK2
2026-05-11T11:19:55.557+00:00,999,70777,188971.84002063752,189207.06977928517,188762.02419543554,188816.2048239952,189214.3117444887,189199.02315128126,188999.19855585083,189135.05245865017,TASK2
2026-05-11T11:19:55.557+00:00,999,70778,188947.23074999222,189182.46050863987,188737.41492479027,188791.32733241646,189189.70247384338,189174.41388063596,188974.32106427205,189110.44318800487,TASK2
2026-05-11T11:19:55.557+00:00,999,70779,188958.36191873098,189193.18934597843,188747.80848596198,188802.32439068847,189200.9006978155,189184.40511040748,188985.18401207734,189121.10497011006,TASK2
2026-05-11T11:19:55.557+00:00,999,70780,188984.91579114387,189219.74321839132,188774.09413744143,188829.14648403483,189227.72279116188,189211.22720375386,189011.73788449026,189147.92706345642,TASK2
2026-05-11T11:19:55.557+00:00,999,70781,188996.44929128283,189231.27671853028,188785.89585851383,188840.94820510724,189239.5245122343,189222.7607038928,189023.53960556263,189159.9970054623,TASK2
2026-05-11T11:19:55.557+00:00,999,70782,188980.69131144183,189215.51873868928,188769.86965773936,188824.9220043328,189223.23009052637,189206.46628218488,189007.78162572166,189143.97080468785,TASK2
2026-05-11T11:19:55.557+00:00,999,70783,188957.6913663973,189192.51879364476,188746.6014917614,188801.92205928828,189200.23014548185,189183.46633714036,188984.78168067714,189120.97085964333,TASK2
2026-05-11T11:19:55.557+00:00,999,70784,188968.9566456028,189204.0522937837,188758.13499190033,188813.18733849376,189211.76364562078,189194.9998372793,188996.04695988263,189132.2361388488,TASK2
2026-05-11T11:19:55.557+00:00,999,70785,188999.8020529511,189234.62948019855,188788.71217831518,188843.76452490862,189242.34083203564,189225.84524462762,189026.6241462975,189162.81332526368,TASK2
2026-05-11T11:19:55.557+00:00,999,70786,189014.28598335816,189249.1134106056,188803.19610872224,188858.51667624913,189257.09298337615,189240.59739596813,189041.376297638,189177.83369753763,TASK2
2026-05-11T11:19:55.557+00:00,999,70787,189013.28015485767,189248.10758210512,188802.19028022175,188857.77906868208,189259.23875084386,189243.0113843693,189043.5220651057,189179.97946500534,TASK2
2026-05-11T11:19:55.557+00:00,999,70788,188998.59505875054,189233.422485998,188787.23696318115,188843.09397257495,189244.55365473672,189228.59450919562,189028.83696899854,189165.56258983168,TASK2
2026-05-11T11:19:55.557+00:00,999,70789,188982.83707890954,189217.664506157,188771.47898334014,188827.0677718005,189225.04058182723,189209.08143628616,189009.32389608907,189146.31773785566,TASK2
2026-05-11T11:19:55.557+00:00,999,70790,189004.83119545356,189239.92684363446,188793.74132081764,188848.79366741105,189247.03469837125,189231.07555283018,189031.58623356654,189168.31185439965,TASK2
2026-05-11T11:19:55.557+00:00,999,70791,189016.09647465902,189250.92390190647,188805.0066000231,188860.05894661654,189258.29997757674,189242.34083203564,189043.1197337055,189179.57713360514,TASK2
2026-05-11T11:19:55.557+00:00,999,70792,188998.19272735034,189233.0201545978,188787.10285271442,188842.4234202413,189240.6644512015,189224.7053056604,189025.2159863968,189161.67338629643,TASK2
2026-05-11T11:19:55.557+00:00,999,70793,188975.99744510622,189210.82487235367,188764.9075704703,188819.9599170637,189218.2009480239,189202.51002341628,189002.7524832192,189139.4781040523,TASK2
2026-05-11T11:19:55.557+00:00,999,70794,188985.38517777744,189220.48082595837,188774.02708220805,188829.6158706684,189227.8569016286,189212.16597702098,189012.4084368239,189148.86583672356,TASK2
2026-05-11T11:19:55.557+00:00,999,70795,189012.74371299072,189247.83936117165,188801.38561742136,188857.24262681516,189255.2154368419,189239.5245122343,189040.03519297065,189176.22437193684,TASK2
2026-05-11T11:19:55.557+00:00,999,70796,189026.69120153083,189261.51862877829,188815.33310596147,188871.19011535528,189268.89470444855,189253.47200077437,189053.98268151077,189190.44008141043,TASK2
2026-05-11T11:19:55.557+00:00,999,70797,189011.46966355678,189246.29709080423,188800.1115679874,188855.70035644775,189253.40494554103,189237.98224186685,189038.49292260324,189174.9503225029,TASK2
2026-05-11T11:19:55.557+00:00,999,70798,188989.81082317958,189224.63825042703,188778.18450667674,188833.7732951371,189231.74610516382,189216.0551805562,189016.83408222607,189153.2914821257,TASK2
2026-05-11T11:19:55.557+00:00,999,70799,188998.39389305044,189233.48954123133,188786.76757654757,188842.6245859414,189240.32917503465,189224.63825042703,189025.4171520969,189161.87455199653,TASK2
2026-05-11T11:19:55.557+00:00,999,70800,189024.94776546332,189259.97635841087,188814.12611176088,188869.04434788757,189267.6206550146,189251.59445424014,189051.90396927643,189188.22725870935,TASK2
2026-05-11T11:19:55.557+00:00,999,70801,189036.74948653573,189271.77807948328,188825.9278328333,188880.84606895997,189279.69059702047,189263.12795437907,189063.70569034884,189200.2972007152,TASK2
2026-05-11T11:19:55.861+00:00,1000,70802,189025.8194834971,189260.84807644464,188815.2660507281,188869.9160659213,189270.63814051606,189254.34371880814,189054.65323384444,189191.24474421082,TASK2
2026-05-11T11:19:55.861+00:00,1000,70803,189001.74665471874,189237.04346859973,188791.46144288318,188846.64789994335,189246.5653117377,189230.53911096323,189030.84862599953,189167.17191543244,TASK2
2026-05-11T11:19:55.861+00:00,1000,70804,189002.01487565218,189237.04346859973,188791.2602771831,188846.44673424325,189245.02304137027,189228.72861966238,189029.03813469864,189165.62964506503,TASK2
2026-05-11T11:19:55.861+00:00,1000,70805,189028.30052713162,189263.32912007917,188817.54592866253,188872.7323857227,189271.04047191626,189254.74605020834,189055.05556524463,189191.91529654447,TASK2
2026-05-11T11:19:55.861+00:00,1000,70806,189041.44335287134,189276.74016675237,188830.68875440225,188885.8752114624,189284.18329765598,189267.88887594806,189068.4666119178,189205.32634321766,TASK2
2026-05-11T11:19:55.861+00:00,1000,70807,189025.95359396382,189260.98218691137,188815.19899549472,188869.84901068796,189268.42531781498,189252.13089610706,189052.70863207683,189189.30014244322,TASK2
2026-05-11T11:19:55.861+00:00,1000,70808,189004.29475358664,189239.05512560072,188793.27193418407,188847.9219493773,189246.49825650433,189230.2038347964,189030.78157076618,189167.37308113254,TASK2
2026-05-11T11:19:55.861+00:00,1000,70809,189014.48714905826,189249.24752107234,188803.4643296557,188858.38256578238,189256.95887290942,189240.6644512015,189040.9739662378,189177.83369753763,TASK2
2026-05-11T11:19:55.861+00:00,1000,70810,189043.45500987233,189278.48360281988,188832.70041140323,188887.61864752992,189286.19495465697,189269.90053294905,189070.21004798534,189206.8015583517,TASK2
2026-05-11T11:19:55.861+00:00,1000,70811,189059.01182401323,189294.04041696078,188848.25722554413,188902.90724073735,189301.75176879784,189285.45734708992,189085.49864119277,189222.09015155912,TASK2
2026-05-11T11:19:55.861+00:00,1000,70812,189042.98562323875,189277.47777431938,188831.9628038362,188886.8810399629,189285.45734708992,189269.162925382,189069.20421948485,189205.7957298512,TASK2
2026-05-11T11:19:55.861+00:00,1000,70813,189019.18101539387,189253.67316647447,188808.1581959913,188863.076432118,189261.65273924504,189245.09009660364,189045.6678325734,189181.72290107285,TASK2
2026-05-11T11:19:55.861+00:00,1000,70814,189027.22764339778,189261.71979447838,188816.4730449287,188871.39128105537,189269.69936724895,189253.40494554103,189053.71446057732,189190.03775001023,TASK2
2026-05-11T11:19:55.861+00:00,1000,70815,189052.70863207683,189286.93256222398,188841.68581267426,188896.87226973442,189295.180355928,189278.6177132866,189078.9272283229,189215.2505177558,TASK2
2026-05-11T11:19:55.861+00:00,1000,70816,189063.9739112823,189298.19784142944,188852.95109187975,188908.1375489399,189306.44563513345,189289.6147715586,189090.19250752838,189226.5157969613,TASK2
2026-05-11T11:19:55.861+00:00,1000,70817,189043.65617557243,189277.6118847861,188832.3651352364,188887.55159229657,189285.85967849012,189269.5652567822,189069.8747718185,189206.1980612514,TASK2
2026-05-11T11:19:55.861+00:00,1000,70818,189017.7058002598,189251.66150947352,188806.68298085727,188861.86943791743,189260.17752411097,189243.88310240305,189044.19261743934,189180.2476859388,TASK2
2026-05-11T11:19:55.861+00:00,1000,70819,189026.28887013064,189260.24457934435,188814.99782979462,188870.45250778826,189268.49237304836,189252.19795134044,189052.77568731018,189188.83075580964,TASK2
2026-05-11T11:19:55.861+00:00,1000,70820,189054.45206814434,189288.40777735802,188843.16102780832,188898.3474848685,189296.9237919955,189280.62937028758,189080.6706643904,189217.2621747568,TASK2
2026-05-11T11:19:55.861+00:00,1000,70821,189068.13133575098,189302.35526589814,188857.37673728188,188912.29497340857,189311.13950146906,189294.5768588277,189094.61815293052,189231.2096632969,TASK2
2026-05-11T11:19:55.861+00:00,1000,70822,189052.37335590998,189286.06084419021,188841.35053650744,188896.26877263412,189294.84507976117,189278.28243711978,189078.59195215607,189214.91524158898,TASK2
2026-05-11T11:19:55.861+00:00,1000,70823,189029.9098527324,189264.13378287957,188819.1552542633,188874.34171132348,189272.64979751705,189256.08715487565,189056.66489084542,189192.98818027833,TASK2
2026-05-11T11:19:55.861+00:00,1000,70824,189040.90691100442,189275.39906208505,188830.15231253533,188885.070548662,189283.3786348556,189267.08421314767,189067.66194911744,189203.71701761687,TASK2
2026-05-11T11:19:55.861+00:00,1000,70825,189071.2158764858,189306.1774142,188860.32716755,188915.24540367667,189314.02287650382,189297.46023386242,189097.8368041321,189234.29420403173,TASK2
2026-05-11T11:19:55.861+00:00,1000,70826,189085.4315859594,189320.12490274012,188874.2746560901,188929.72933408374,189327.97036504393,189311.675943336,189112.05251360565,189248.50991350532,TASK2
2026-05-11T11:19:55.861+00:00,1000,70827,189066.99139678376,189301.6847135645,188856.10268784795,188911.55736584155,189309.5301758683,189293.23575416039,189093.61232443003,189229.80150339621,TASK2
2026-05-11T11:19:55.861+00:00,1000,70828,189042.9185680054,189277.6118847861,188832.29808000303,188887.4845370632,189285.7255680234,189269.162925382,189069.53949565167,189205.72867461786,TASK2
2026-05-11T11:19:55.861+00:00,1000,70829,189051.50163787624,189286.19495465697,188840.61292894042,188895.79938600058,189294.30863789422,189277.74599525286,189078.1225655225,189214.57996542216,TASK2
2026-05-11T11:19:55.861+00:00,1000,70830,189078.3237312226,189313.01704800333,188867.43502228678,188922.62147934694,189321.1307312406,189304.8363095327,189105.21287980233,189241.670279702,TASK2
2026-05-11T11:19:55.861+00:00,1000,70831,189090.39367322848,189325.08699000918,188879.50496429266,188934.95964228627,189333.20067324647,189316.90625153854,189117.2828218082,189253.74022170785,TASK2
2026-05-11T11:19:55.861+00:00,1000,70832,189085.90097259296,189320.59428937366,188875.2804845906,188930.7351625842,189331.65840287905,189315.09576023766,189115.47233050733,189251.92973040696,TASK2
2026-05-11T11:19:55.861+00:00,1000,70833,189066.65612061694,189301.34943739764,188856.03563261457,188911.4903106082,189311.8771090361,189295.5826873282,189096.2274785313,189232.68487843094,TASK2
2026-05-11T11:19:55.861+00:00,1000,70834,189060.0176525137,189294.44274836098,188849.12894357787,188904.5836215715,189302.8246525317,189286.2620098903,189087.1750220269,189223.63242192657,TASK2
2026-05-11T11:19:55.861+00:00,1000,70835,189087.64440866048,189322.06950450773,188876.75569972466,188931.9421567848,189330.45140867846,189313.88876603707,189114.80177817366,189250.99095713985,TASK2
2026-05-11T11:19:55.861+00:00,1000,70836,189101.5918972006,189336.2852139813,188890.97140919822,188946.15786625838,189344.39889721858,189328.10447551066,189128.74926671377,189265.20666661343,TASK2
2026-05-11T11:19:55.861+00:00,1000,70837,189083.15170802496,189317.84502480566,188872.5312200226,188927.9858980162,189326.22692897642,189309.9325072685,189110.84551940506,189246.7664774378,TASK2
2026-05-11T11:19:55.861+00:00,1000,70838,189060.15176298044,189294.84507976117,188849.26305404463,188904.44951110476,189302.690542065,189286.6643412905,189087.5773534271,189223.4983114598,TASK2
2026-05-11T11:19:55.861+00:00,1000,70839,189069.2712747182,189303.69637056545,188858.11434484893,188913.30080190906,189311.81005380274,189295.7838530283,189096.69686516488,189232.6178231976,TASK2
2026-05-11T11:19:55.861+00:00,1000,70840,189096.36158899803,189331.32312671223,188885.4728800622,188940.92755805585,189339.4368099495,189323.14238824157,189124.05540037816,189259.97635841087,TASK2
2026-05-11T11:19:55.861+00:00,1000,70841,189108.69975193735,189343.929510585,188898.079263935,188953.26572099517,189352.0431938223,189336.01699304784,189136.39356331748,189272.58274228367,TASK2
2026-05-11T11:19:55.861+00:00,1000,70842,189090.25956276173,189325.22110047593,188879.3708538259,188934.82553181954,189333.60300464666,189317.30858293874,189117.6851532084,189253.87433217457,TASK2
2026-05-11T11:19:55.861+00:00,1000,70843,189065.9185130499,189300.34360889715,188854.49336224716,188910.21626117424,189308.99373400136,189292.43109136,189093.0758825631,189229.2650615293,TASK2
2026-05-11T11:19:55.861+00:00,1000,70844,189074.23336198728,189309.19489970146,188863.076432118,188918.79933104507,189317.57680387222,189301.01416123082,189101.65895243394,189237.84813140013,TASK2
2026-05-11T11:19:55.861+00:00,1000,70845,189101.5918972006,189336.82165584824,188890.16674639782,188945.8896453249,189344.9353390855,189328.37269644413,189129.2857085807,189264.6702247465,TASK2
2026-05-11T11:19:55.861+00:00,1000,70846,189113.93006013992,189349.428039721,188902.77313027062,188958.4960291977,189357.27350202482,189340.71085938346,189141.8920924535,189277.54482955276,TASK2
2026-05-11T11:19:55.861+00:00,1000,70847,189098.4403012324,189333.67005988004,188887.55159229657,188943.00627029018,189341.51552218385,189324.95287954246,189125.86589167904,189262.05507064523,TASK2
2026-05-11T11:19:55.861+00:00,1000,70848,189075.9767980548,189311.4747776359,188865.35631005245,188920.81098804605,189319.32023993973,189302.75759729833,189103.67060943492,189240.12800933456,TASK2
2026-05-11T11:19:55.861+00:00,1000,70849,189085.90097259296,189321.39895217406,188875.2804845906,188930.7351625842,189329.51263541135,189312.6817718365,189113.86300490654,189250.32040480617,TASK2
2026-05-11T11:19:55.861+00:00,1000,70850,189114.06417060664,189349.2939292543,188903.17546167082,188958.63013966443,189357.40761249157,189340.5767489167,189142.0262029202,189278.2153818864,TASK2
2026-05-11T11:19:55.861+00:00,1000,70851,189126.1341126125,189361.36387126014,188915.51362461015,188970.96830260375,189369.20933356395,189352.91491185606,189154.0961449261,189290.0171029588,TASK2
2026-05-11T11:19:55.861+00:00,1000,70852,189108.76680717073,189343.79540011828,188897.81104300154,188952.93044482832,189351.77497288882,189335.41349594755,189136.05828715066,189272.24746611685,TASK2
2026-05-11T11:19:55.861+00:00,1000,70853,189085.7668621262,189320.79545507376,188874.81109795705,188929.93049978383,189329.04324877777,189312.41355090303,189112.7901211727,189249.24752107234,TASK2
2026-05-11T11:19:55.861+00:00,1000,70854,189095.6910366644,189330.45140867846,188885.00349342867,188939.85467432198,189338.69920238247,189322.33772544118,189122.44607477737,189259.43991654395,TASK2
2026-05-11T11:19:55.861+00:00,1000,70855,189123.04957187767,189357.80994389177,188912.0938077085,188966.9449886018,189365.7895166623,189349.69626065448,189149.80460999068,189286.5302308238,TASK2
2026-05-11T11:19:55.861+00:00,1000,70856,189135.65595575047,189370.68454869802,188924.70019158127,188979.5513724746,189378.3959005351,189362.30264452728,189162.41099386348,189299.40483563003,TASK2
2026-05-11T11:19:55.861+00:00,1000,70857,189116.67932470792,189351.439696722,188905.72356053872,188960.3065204986,189359.15104855908,189343.05779255126,189143.16614188746,189280.159983654,TASK2
2026-05-11T11:19:55.861+00:00,1000,70858,189093.14293779648,189328.17153074403,188882.45539456076,188937.0383545206,189335.8828825811,189320.05784750675,189120.16619684294,189256.89181767605,TASK2
2026-05-11T11:19:55.861+00:00,1000,70859,189103.3353332681,189338.36392621565,188892.3795690989,188947.23074999222,189346.0752780527,189329.9820220449,189130.09037138108,189267.08421314767,TASK2
2026-05-11T11:19:55.861+00:00,1000,70860,189131.23031034833,189366.25890329588,188920.27454617913,188975.39394800592,189373.7020341995,189357.60877819167,189157.71712752784,189294.71096929442,TASK2
2026-05-11T11:19:55.861+00:00,1000,70861,189144.90957795497,189379.93817090252,188933.6855928523,188988.80499467909,189387.38130180613,189371.2880457983,189171.12817420103,189308.12201596762,TASK2
2026-05-11T11:19:55.861+00:00,1000,70862,189142.8308657206,189377.5912377347,188931.87510155144,188986.72628244475,189388.72240647345,189372.36092953215,189172.2010579349,189309.46312063493,TASK2
2026-05-11T11:19:55.861+00:00,1000,70863,189123.85423467806,189358.61460669214,188913.16669144234,188967.7496514022,189369.7457754309,189353.3842984896,189153.4926478258,189290.75471052583,TASK2
2026-05-11T11:19:55.861+00:00,1000,70864,189111.31490603863,189346.34349898619,188900.62736280292,188955.47854369623,189353.9877955899,189337.89453958208,189138.00288891827,189274.99673068486,TASK2
2026-05-11T11:19:55.861+00:00,1000,70865,189136.52767378424,189371.5562667318,188925.8401305485,188980.69131144183,189379.2005633355,189363.10730732768,189163.21565666384,189300.4777193639,TASK2
2026-05-11T11:19:55.861+00:00,1000,70866,189149.67049952396,189384.96731340495,188939.25117722168,188994.102358115,189392.34338907522,189376.51835400084,189176.62670333704,189313.88876603707,TASK2
2026-05-11T11:19:55.861+00:00,1000,70867,189131.49853128177,189366.52712422932,188920.81098804605,188975.66216893937,189373.9031998996,189358.07816482522,189158.1865141614,189295.44857686144,TASK2
2026-05-11T11:19:55.861+00:00,1000,70868,189109.57146997112,189344.86828385215,188898.61570580193,188953.73510762872,189351.9761385889,189336.15110351457,189136.25945285076,189273.25329461735,TASK2
2026-05-11T11:19:55.861+00:00,1000,70869,189118.15453984195,189353.45135372298,188907.19877567276,188962.31817749955,189360.55920845977,189344.7341733854,189145.11074365507,189281.83636448818,TASK2
2026-05-11T11:19:55.861+00:00,1000,70870,189143.90374945448,189378.93234240203,188932.94798528528,188987.79916617862,189386.04019713882,189370.48338299792,189170.5917323341,189307.5855741007,TASK2
2026-05-11T11:19:55.861+00:00,1000,70871,189155.70547052688,189391.00228440788,188945.01792729116,189000.13732911795,189397.84191821123,189382.28510407032,189182.39345340652,189319.38729517307,TASK2
2026-05-11T11:19:55.861+00:00,1000,70872,189136.46061855086,189372.02565336533,188926.0412962486,188980.89247714193,189378.5970662352,189363.0402520943,189163.41682236394,189300.41066413053,TASK2
2026-05-11T11:19:55.861+00:00,1000,70873,189115.87466190752,189351.439696722,188905.45533960525,188960.3065204986,189358.2793305253,189342.1860745175,189143.09908665408,189279.8247074872,TASK2
2026-05-11T11:19:55.861+00:00,1000,70874,189130.62681324803,189366.1918480625,188920.20749094576,188975.0586718391,189373.03148186582,189357.20644679148,189158.11945892803,189294.5768588277,TASK2
2026-05-11T11:19:55.861+00:00,1000,70875,189162.00866246328,189397.30547634428,188951.32111922756,189006.44052105435,189404.41333108107,189388.85651694017,189189.23308720984,189326.22692897642,TASK2
2026-05-11T11:19:55.861+00:00,1000,70876,189177.56547660416,189412.86229048518,188966.87793336844,189021.99733519522,189420.23836615542,189404.41333108107,189204.52168041727,189342.05196405077,TASK2
2026-05-11T11:19:55.861+00:00,1000,70877,189159.12528742853,189394.42210130955,188948.70596512628,189003.28892508615,189401.7981769798,189385.70492097197,189186.08149124164,189323.34355394167,TASK2
2026-05-11T11:19:55.861+00:00,1000,70878,189134.51601678325,189369.27638879733,188923.56025261406,188978.41143350737,189376.92068540104,189361.0956503267,189161.2039996629,189298.46606236292,TASK2
2026-05-11T11:19:55.861+00:00,1000,70879,189142.56264478716,189377.32301680124,188931.3386596845,188986.45806151128,189384.96731340495,189368.87405739713,189169.2506276668,189306.51269036683,TASK2
2026-05-11T11:19:55.861+00:00,1000,70880,189168.58007533313,189403.60866828068,188957.3560902305,189012.2072711238,189410.98474395095,189395.15970887657,189195.26805821277,189332.26189997935,TASK2
2026-05-11T11:19:55.861+00:00,1000,70881,189178.77247080475,189413.8010637523,188967.81670663555,189022.39966659542,189421.445360356,189405.62032528166,189205.72867461786,189342.45429545097,TASK2
2026-05-11T11:19:55.861+00:00,1000,70882,189157.91829322794,189393.21510710896,188946.96252905877,189001.54548901864,189400.32296184576,189384.4979267714,189184.60627610757,189321.3318969407,TASK2
2026-05-11T11:19:55.861+00:00,1000,70883,189135.85712145056,189370.9527696315,188925.23663344822,188979.9537038748,189378.93234240203,189362.16853406053,189163.01449096375,189299.2707251633,TASK2
2026-05-11T11:19:55.861+00:00,1000,70884,189145.51307505526,189380.34050230272,188934.62436611945,188989.60965747948,189388.32007507325,189371.5562667318,189172.402223635,189308.926678768,TASK2
2026-05-11T11:19:55.861+00:00,1000,70885,189172.87161026854,189407.699037516,188961.71468039928,189016.6999717593,189415.67861028656,189398.6465810116,189199.49253791483,189336.01699304784,TASK2
2026-05-11T11:19:55.861+00:00,1000,70886,189184.94155227442,189419.5007585884,188973.78462240513,189028.7699137652,189427.7485522924,189410.98474395095,189211.56247992069,189348.0869350537,TASK2
2026-05-11T11:19:55.861+00:00,1000,70887,189166.76958403224,189401.32879034625,188955.88087509642,189010.8661664565,189409.57658405026,189393.08099664224,189193.65873261198,189330.183187745,TASK2
2026-05-11T11:19:55.861+00:00,1000,70888,189143.76963898775,189378.32884530173,188932.61270911846,188987.59800047852,189386.57663900574,189369.81283066425,189170.92700850093,189307.1832427005,TASK2
2026-05-11T11:19:55.861+00:00,1000,70889,189154.4984763263,189389.32590357374,188943.341546457,188998.32683781706,189397.30547634428,189380.5416680028,189181.65584583947,189317.91208003904,TASK2
2026-05-11T11:19:55.861+00:00,1000,70890,189184.27099994075,189419.0984271882,188973.11407007146,189028.367582365,189427.07799995877,189410.31419161728,189211.1601485205,189347.41638272005,TASK2
2026-05-11T11:19:55.861+00:00,1000,70891,189199.02315128126,189433.8505785287,188987.86622141197,189043.1197337055,189441.83015129925,189425.06634295778,189225.64407892752,189362.16853406053,TASK2
2026-05-11T11:19:55.861+00:00,1000,70892,189184.87449704105,189419.7019242885,188973.4493462383,189028.9710794653,189428.7543807929,189412.25879338488,189212.56830842118,189349.0927635542,TASK2
2026-05-11T11:19:55.861+00:00,1000,70893,189162.14277293,189396.97020017746,188950.9858430607,189006.23935535425,189406.2908776153,189389.79529020732,189190.37302617705,189326.89748131006,TASK2
2026-05-11T11:19:55.861+00:00,1000,70894,189165.8978659985,189400.9935141794,188954.7409361292,189010.2626693562,189408.16842414957,189392.20927860847,189192.78701457824,189329.31146971125,TASK2
2026-05-11T11:19:55.861+00:00,1000,70895,189192.18351747794,189427.27916565884,188981.29480854212,189036.8165417691,189434.454075629,189418.4949300879,189219.07266605768,189355.5971211907,TASK2
2026-05-11T11:19:55.861+00:00,1000,70896,189203.4487966834,189438.27622393085,188992.02364588066,189047.54537910764,189445.98757576794,189429.7602092934,189230.0697243297,189366.5941794627,TASK2
2026-05-11T11:19:55.861+00:00,1000,70897,189182.86284004006,189417.42204635407,188971.7059101708,189026.9594224643,189425.4016191246,189409.17425265006,189209.48376768635,189346.2764437528,TASK2
2026-05-11T11:19:55.861+00:00,1000,70898,189159.32645312863,189394.15388037608,188948.4377441928,189003.42303555287,189401.86523221317,189385.36964480515,189185.94738077492,189322.74005684137,TASK2
2026-05-11T11:19:55.861+00:00,1000,70899,189170.8599532676,189405.68738051504,188959.97124433174,189014.9565356918,189413.3987323521,189396.90314494408,189197.48088091385,189334.00533604686,TASK2
2026-05-11T11:19:55.861+00:00,1000,70900,189200.63247688205,189435.19168319603,188989.47554701276,189044.46083837282,189442.63481409964,189426.4074476251,189226.98518359484,189363.50963872788,TASK2
2026-05-11T11:19:55.861+00:00,1000,70901,189213.5070816883,189448.33450893575,189002.350151819,189057.33544317906,189455.50941890592,189439.55027336482,189240.12800933456,189376.6524644676,TASK2
2026-05-11T11:19:55.861+00:00,1000,70902,189194.53045064575,189429.62609882667,188983.64174170993,189038.62703307,189436.8010087968,189420.84186325571,189221.41959922548,189357.9440543585,TASK2
2026-05-11T11:19:55.861+00:00,1000,70903,189170.72584280084,189405.5532700483,188959.56891293157,189014.5542042916,189412.9964009519,189396.76903447736,189197.3467704471,189333.87122558014,TASK2
2026-05-11T11:19:55.861+00:00,1000,70904,189182.86284004006,189417.82437775427,188971.97413110425,189026.6241462975,189425.4016191246,189409.17425265006,189209.81904385317,189346.41055421956,TASK2
2026-05-11T11:19:55.861+00:00,1000,70905,189212.36714272108,189447.32868043525,189001.47843378526,189056.39666991195,189454.63770087215,189438.4103343976,189239.3233465342,189375.6466359671,TASK2
2026-05-11T11:19:55.861+00:00,1000,70906,189226.04641032772,189461.00794804192,189015.1577013919,189070.0759375186,189468.58518941226,189452.35782293772,189253.00261414083,189389.32590357374,TASK2
2026-05-11T11:19:55.861+00:00,1000,70907,189219.67616315797,189454.63770087215,189008.78745422215,189063.70569034884,189465.1653725106,189448.40156416912,189249.04635537224,189385.36964480515,TASK2
2026-05-11T11:19:55.861+00:00,1000,70908,189193.99400877883,189428.68732555953,188983.105299843,189038.0235359697,189438.4103343976,189421.37830512266,189222.5595381927,189359.15104855908,TASK2
2026-05-11T11:19:55.861+00:00,1000,70909,189194.26222971227,189428.955546493,188983.37352077645,189038.29175690314,189437.4045058971,189420.37247662217,189221.28548875873,189357.87699912512,TASK2
2026-05-11T11:19:55.861+00:00,1000,70910,189224.03475332673,189458.72807010746,189013.4142653244,189068.0642805176,189467.17702951157,189450.14500023663,189251.32623330667,189387.64952273958,TASK2
2026-05-11T11:19:55.861+00:00,1000,70911,189234.7635906653,189469.72512837948,189024.4113235964,189079.06133878962,189477.9058668501,189461.41027944212,189262.05507064523,189398.91480194507,TASK2
2026-05-11T11:19:55.861+00:00,1000,70912,189214.4458549554,189449.40739266961,189004.09358788654,189059.01182401323,189457.85635207372,189440.82432279876,189241.73733493534,189378.5970662352,TASK2
2026-05-11T11:19:55.861+00:00,1000,70913,189190.64124711053,189425.6027848247,188980.28898004163,189035.4754371018,189434.0517442288,189417.01971495387,189217.93272709046,189354.7924583903,TASK2
2026-05-11T11:19:55.861+00:00,1000,70914,189200.2972007152,189434.99051749593,188989.67671271286,189044.86316977302,189443.17125596656,189426.4074476251,189227.3204597617,189364.18019106152,TASK2
2026-05-11T11:19:55.861+00:00,1000,70915,189227.38751499503,189462.34905270924,189016.7670269927,189071.68526311938,189470.52979117987,189453.49776190493,189254.41077404152,189391.27050534135,TASK2
2026-05-11T11:19:55.861+00:00,1000,70916,189240.53034073475,189475.7600993824,189029.9098527324,189084.8280888591,189483.94083785306,189466.9088085781,189267.8218207147,189404.41333108107,TASK2
2026-05-11T11:19:55.861+00:00,1000,70917,189220.7490468918,189455.71058460601,189009.860337956,189064.77857408268,189464.1595440101,189446.8592938017,189247.77230593827,189384.36381630466,TASK2
2026-05-11T11:19:55.861+00:00,1000,70918,189196.67621811345,189431.63775582763,188985.78750917764,189041.24218717124,189440.08671523174,189423.0546859568,189223.9676980934,189360.55920845977,TASK2
2026-05-11T11:19:55.861+00:00,1000,70919,189208.2097182524,189443.17125596656,188997.58923025004,189052.77568731018,189451.35199443722,189435.12462796265,189235.7694191658,189372.36092953215,TASK2
2026-05-11T11:19:55.861+00:00,1000,70920,189236.10469533261,189471.33445398026,189025.75242826372,189080.6706643904,189479.5151924509,189463.01960504288,189263.664396246,189400.25590661238,TASK2
2026-05-11T11:19:55.861+00:00,1000,70921,189248.71107920542,189483.94083785306,189038.62703307,189093.54526919668,189492.1215763237,189475.62598891568,189276.2707801188,189412.86229048518,TASK2
2026-05-11T11:19:55.861+00:00,1000,70922,189230.0026690963,189465.50064867744,189019.9186229609,189075.10508002105,189474.217829015,189457.18579974005,189257.83059094317,189394.42210130955,TASK2
2026-05-11T11:19:55.861+00:00,1000,70923,189205.92984031796,189441.69604083252,188995.84579418253,189051.30047217614,189450.14500023663,189433.1129709617,189233.7577621648,189370.3492725312,TASK2
2026-05-11T11:19:55.861+00:00,1000,70924,189216.92689858997,189452.42487817106,189006.84285245455,189062.29753044815,189460.87383757517,189444.1100292337,189244.48659950335,189381.3463308032,TASK2
2026-05-11T11:19:55.861+00:00,1000,70925,189244.28543380325,189479.5151924509,189034.20138766782,189089.387844728,189487.964151855,189471.468564447,189271.84513471666,189408.7048660165,TASK2
2026-05-11T11:19:55.861+00:00,1000,70926,189255.81893394218,189490.78047165638,189045.4666668733,189100.65312393344,189499.49765199394,189482.73384365247,189283.64685578906,189420.23836615542,TASK2
2026-05-11T11:19:56.158+00:00,1001,70927,189235.50119823232,189470.99917781344,189025.4171520969,189080.60360915706,189479.716358151,189462.68432887606,189263.59734101265,189400.45707231248,TASK2
2026-05-11T11:19:56.158+00:00,1001,70928,189213.03769505475,189448.53567463584,189003.22186985277,189058.14010597946,189456.98463403995,189439.952604765,189240.8656169016,189377.9935691349,TASK2
2026-05-11T11:19:56.158+00:00,1001,70929,189228.0580673287,189462.81843934278,189016.9011374594,189071.95348405285,189470.99917781344,189454.30242470533,189254.94721590844,189391.40461580807,TASK2
2026-05-11T11:19:56.158+00:00,1001,70930,189257.29414907625,189492.05452109032,189045.8689982735,189101.1895658004,189500.23525956098,189483.53850645287,189283.9150767225,189420.37247662217,TASK2
2026-05-11T11:19:56.158+00:00,1001,70931,189269.09587014865,189504.39268402965,189057.93894027936,189113.25950780624,189512.03698063336,189495.60844845872,189295.9850187284,189432.44241862802,TASK2
2026-05-11T11:19:56.158+00:00,1001,70932,189247.70525070492,189483.00206458592,189036.28009990216,189091.86888836251,189490.64636118963,189474.217829015,189274.32617835118,189411.0517991843,TASK2
2026-05-11T11:19:56.158+00:00,1001,70933,189223.90064286,189458.66101487412,189012.2072711238,189067.79605958416,189466.30531147783,189450.14500023663,189250.25334957283,189386.71074947246,TASK2
2026-05-11T11:19:56.158+00:00,1001,70934,189234.89770113202,189469.92629407957,189023.4725503293,189079.06133878962,189477.5705906833,189461.14205850865,189261.51862877829,189397.70780774447,TASK2
2026-05-11T11:19:56.158+00:00,1001,70935,189263.32912007917,189498.35771302672,189051.90396927643,189107.22453680332,189506.00200963044,189489.30525652232,189289.681826792,189426.13922669162,TASK2
2026-05-11T11:19:56.158+00:00,1001,70936,189275.93550395197,189510.96409689952,189064.51035314924,189119.83092067612,189518.60839350324,189501.91164039512,189302.2882106648,189439.0138314979,TASK2
2026-05-11T11:19:56.158+00:00,1001,70937,189258.29997757674,189493.59679145773,189046.87482677397,189102.7318361678,189502.31397179532,189485.34899775372,189285.99378895687,189422.4511888565,TASK2
2026-05-11T11:19:56.158+00:00,1001,70938,189233.69070693143,189468.71929987898,189022.2655561287,189077.85434458905,189477.43648021657,189460.73972710845,189261.38451831156,189397.57369727775,TASK2
2026-05-11T11:19:56.158+00:00,1001,70939,189243.07843960266,189477.83881161676,189031.38506786645,189086.70563539333,189485.75132915392,189469.05457604583,189269.9675881824,189405.88854621514,TASK2
2026-05-11T11:19:56.158+00:00,1001,70940,189272.3145213502,189506.80667243083,189060.35292868054,189115.94171714087,189514.71918996802,189498.0224368599,189299.20366992994,189435.12462796265,TASK2
2026-05-11T11:19:56.158+00:00,1001,70941,189283.84802148916,189518.8766144367,189072.15464975295,189127.74343821328,189526.25269010695,189509.8241579323,189311.00539100234,189446.6581281016,TASK2
2026-05-11T11:19:56.158+00:00,1001,70942,189262.99384391235,189498.0224368599,189051.30047217614,189106.8892606365,189505.1302915967,189488.70175942202,189289.8829924921,189425.8039505248,TASK2
2026-05-11T11:19:56.158+00:00,1001,70943,189239.4574570009,189474.48604994846,189028.03230619818,189083.35287372506,189481.59390468526,189465.1653725106,189266.07838464717,189402.26756361336,TASK2
2026-05-11T11:19:56.158+00:00,1001,70944,189250.99095713985,189485.75132915392,189039.29758540363,189094.61815293052,189493.39562575764,189476.43065171607,189277.34366385266,189413.53284281885,TASK2
2026-05-11T11:19:56.158+00:00,1001,70945,189279.9588179539,189514.71918996802,189068.2654462177,189123.58601374459,189522.36348657173,189505.39851253014,189306.31152466673,189442.7689245664,TASK2
2026-05-11T11:19:56.158+00:00,1001,70946,189291.49231809287,189526.52091104042,189080.33538822358,189135.387734817,189533.89698671066,189517.46845453602,189318.3814666726,189454.30242470533,TASK2
2026-05-11T11:19:56.158+00:00,1001,70947,189270.63814051606,189505.39851253014,189058.94476877985,189114.26533630674,189512.7745882004,189496.6142769592,189297.25906816233,189433.44824712852,TASK2
2026-05-11T11:19:56.158+00:00,1001,70948,189247.3699745381,189482.13034655218,189035.6766028019,189090.99717032877,189489.50642222242,189473.34611098125,189273.7226812509,189410.448302084,TASK2
2026-05-11T11:19:56.158+00:00,1001,70949,189259.17169561048,189493.93206762458,189047.47832387427,189103.06711233463,189501.5763642283,189485.4160529871,189285.79262325677,189422.2500231564,TASK2
2026-05-11T11:19:56.158+00:00,1001,70950,189288.94421922497,189523.43637030557,189076.98262655528,189132.57141501564,189531.34888784276,189514.92035566812,189315.56514687123,189451.48610490395,TASK2
2026-05-11T11:19:56.158+00:00,1001,70951,189301.55060309774,189536.04275417837,189089.85723136153,189144.90957795497,189543.95527171556,189527.5267395409,189328.17153074403,189464.09248877675,TASK2
2026-05-11T11:19:56.158+00:00,1001,70952,189280.69642552096,189514.92035566812,189068.73483285127,189123.78717944468,189522.83287320528,189506.6725619641,189307.04913223375,189442.97009026646,TASK2
2026-05-11T11:19:56.158+00:00,1001,70953,189257.96470140992,189492.18863155707,189046.00310874023,189101.05545533364,189499.8329281608,189483.6726169196,189284.04918718926,189419.97014522197,TASK2
2026-05-11T11:19:56.158+00:00,1001,70954,189270.03464341577,189504.5267944964,189058.34127167956,189113.39361827297,189512.1710911001,189495.74255892547,189296.38735012859,189432.57652909475,TASK2
2026-05-11T11:19:56.158+00:00,1001,70955,189298.46606236292,189532.95821344355,189086.50446969323,189142.0932581536,189540.60251004726,189523.90575693914,189324.81876907573,189460.73972710845,TASK2
2026-05-11T11:19:56.158+00:00,1001,70956,189310.93833576897,189545.96692871652,189099.9825715998,189155.16902865993,189554.01355672043,189537.85324547926,189337.96159481545,189474.6201604152,TASK2
2026-05-11T11:19:56.158+00:00,1001,70957,189289.54771632527,189524.84453020626,189078.59195215607,189133.77840921623,189532.62293727673,189516.19440510205,189316.57097537172,189452.961320038,TASK2
2026-05-11T11:19:56.158+00:00,1001,70958,189266.54777128075,189501.30814329482,189055.32378617808,189110.24202230477,189509.08655036526,189492.9262391241,189293.5710303272,189429.9613749935,TASK2
2026-05-11T11:19:56.158+00:00,1001,70959,189278.34949235315,189513.3780853007,189067.39372818396,189122.31196431065,189521.15649237114,189504.99618112994,189305.3727513996,189442.29953793282,TASK2
2026-05-11T11:19:56.158+00:00,1001,70960,189306.7809113003,189541.54128331438,189095.8251471311,189150.47516232432,189549.5879113183,189533.15937914365,189333.5359494133,189470.4627359465,TASK2
2026-05-11T11:19:56.158+00:00,1001,70961,189318.04619050576,189552.80656251987,189106.82220540312,189161.7404415298,189560.85319052378,189544.4246583491,189345.06944955225,189481.4597942185,TASK2
2026-05-11T11:19:56.158+00:00,1001,70962,189297.19201292898,189532.22060587653,189086.2362487598,189140.886263953,189539.99901294697,189523.83870170577,189324.48349290888,189460.87383757517,TASK2
2026-05-11T11:19:56.158+00:00,1001,70963,189274.72850975138,189509.75710269893,189063.7727455822,189118.42276077543,189517.53550976937,189501.64341946164,189302.2882106648,189438.4103343976,TASK2
2026-05-11T11:19:56.158+00:00,1001,70964,189287.33489362418,189522.36348657173,189076.379129455,189131.02914464823,189530.14189364217,189514.24980333445,189314.89459453756,189450.74849733693,TASK2
2026-05-11T11:19:56.158+00:00,1001,70965,189315.76631257133,189551.06312645235,189105.0787693356,189159.46056359538,189558.8415335228,189542.94944321507,189343.59423441818,189479.44813721755,TASK2
2026-05-11T11:19:56.158+00:00,1001,70966,189327.56803364374,189563.40128939168,189117.41693227494,189171.7987265347,189571.17969646212,189555.2876061544,189355.66417642406,189491.78630015688,TASK2
2026-05-11T11:19:56.158+00:00,1001,70967,189313.15115847005,189548.1797514176,189102.46361523433,189156.8454094941,189557.8357050223,189541.94361471458,189342.32018498424,189478.44230871706,TASK2
2026-05-11T11:19:56.158+00:00,1001,70968,189291.2240971594,189526.25269010695,189080.53655392368,189135.45479005037,189535.90864371165,189520.28477433737,189320.12490274012,189456.51524740638,TASK2
2026-05-11T11:19:56.158+00:00,1001,70969,189294.9791902279,189530.2760041089,189084.8280888591,189139.4781040523,189538.3226321128,189522.69876273855,189322.80711207475,189459.19745674104,TASK2
2026-05-11T11:19:56.158+00:00,1001,70970,189320.99662077386,189556.2934346549,189110.57729847162,189164.95909273138,189564.3400626588,189548.44797235107,189348.8245426207,189484.94666635356,TASK2
2026-05-11T11:19:56.158+00:00,1001,70971,189330.92079531203,189566.21760919303,189120.23325207632,189174.88326726953,189574.26423719694,189558.6403678227,189358.4804962254,189494.8708408917,TASK2
2026-05-11T11:19:56.158+00:00,1001,70972,189313.01704800333,189548.5820828178,189102.59772570105,189156.97951996082,189556.36048988826,189540.46839958054,189340.5767489167,189476.967093583,TASK2
2026-05-11T11:19:56.158+00:00,1001,70973,189291.6264285596,189527.45968430754,189081.4753271908,189135.5889005171,189535.23809137798,189519.0777801368,189319.18612947298,189455.84469507274,TASK2
2026-05-11T11:19:56.158+00:00,1001,70974,189303.96459149892,189539.5296263134,189093.81349013012,189147.92706345642,189547.30803338386,189531.41594307614,189331.52429241233,189468.18285801206,TASK2
2026-05-11T11:19:56.158+00:00,1001,70975,189331.85956857915,189567.6928243271,189121.97668814383,189176.09026147012,189575.20301046406,189559.84736202328,189359.687490426,189496.0778350923,TASK2
2026-05-11T11:19:56.158+00:00,1001,70976,189343.1248477846,189578.6898825991,189132.97374641584,189187.08731974213,189586.46828966954,189570.8444202953,189370.68454869802,189507.0748933643,TASK2
2026-05-11T11:19:56.158+00:00,1001,70977,189321.19778647396,189556.76282128843,189111.31490603863,189165.42847936493,189564.27300742542,189548.64913805117,189348.75748738737,189485.14783205366,TASK2
2026-05-11T11:19:56.158+00:00,1001,70978,189299.00250422984,189534.56753904434,189089.1196237945,189143.2331971208,189542.34594611477,189526.45385580705,189326.8304260767,189463.22077074298,TASK2
2026-05-11T11:19:56.158+00:00,1001,70979,189311.34066716916,189547.1739229171,189101.45778673384,189155.57136006013,189554.95232998757,189539.06023967985,189339.4368099495,189475.82715461578,TASK2
2026-05-11T11:19:56.158+00:00,1001,70980,189338.96742331595,189574.53245813042,189128.81632194715,189182.92989527344,189582.31086520085,189566.41877489313,189366.52712422932,189503.1856898291,TASK2
2026-05-11T11:19:56.158+00:00,1001,70981,189349.96448158796,189585.52951640243,189140.0816011526,189193.92695354545,189593.30792347286,189577.1476122317,189377.52418250134,189514.45096903454,TASK2
2026-05-11T11:19:56.158+00:00,1001,70982,189328.03742027728,189563.60245509178,189118.15453984195,189171.9998922348,189571.6490830957,189555.22055092102,189355.86534212413,189492.5239077239,TASK2
2026-05-11T11:19:56.158+00:00,1001,70983,189305.30569616624,189540.8707309807,189095.6910366644,189149.26816812376,189548.91735898462,189532.48882680997,189333.1336180131,189469.79218361285,TASK2
2026-05-11T11:19:56.158+00:00,1001,70984,189317.91208003904,189553.20889392006,189108.29742053716,189161.60633106309,189561.52374285742,189545.09521068278,189345.47178095242,189482.39856748565,TASK2
2026-05-11T11:19:56.158+00:00,1001,70985,189346.8799408531,189582.17675473413,189136.99706041778,189190.57419187715,189590.49160367151,189574.06307149684,189374.4396417665,189511.09820736625,TASK2
2026-05-11T11:19:56.158+00:00,1001,70986,189358.949882859,189594.24669673998,189148.7987814902,189202.37591294956,189602.2933247439,189585.86479256925,189386.24136283892,189522.89992843865,TASK2
2026-05-11T11:19:56.158+00:00,1001,70987,189341.3814117171,189576.27589419793,189130.69386848138,189185.27682844125,189584.5907431353,189568.0951557273,189368.67289169703,189504.79501542985,TASK2
2026-05-11T11:19:56.158+00:00,1001,70988,189319.99079227337,189554.8852747542,189109.30324903765,189164.154429931,189563.46834462503,189546.70453628356,189347.2822722533,189483.6726169196,TASK2
2026-05-11T11:19:56.158+00:00,1001,70989,189332.86539707964,189567.75987956044,189121.90963291045,189176.76081380376,189576.07472849783,189559.31092015633,189359.8886561261,189496.54722172584,TASK2
2026-05-11T11:19:56.158+00:00,1001,70990,189360.22393229292,189595.11841477375,189148.99994719028,189204.11934901707,189603.43326371114,189586.66945536964,189387.2471913394,189523.90575693914,TASK2
2026-05-11T11:19:56.158+00:00,1001,70991,189370.9527696315,189605.8472521123,189159.72878452882,189214.8481863556,189613.8938801162,189597.39829270818,189397.70780774447,189534.36637334424,TASK2
2026-05-11T11:19:56.158+00:00,1001,70992,189349.0257083208,189584.18841173511,189137.80172321817,189193.18934597843,189592.23503973903,189575.47123139753,189376.0489673673,189512.70753296703,TASK2
2026-05-11T11:19:56.158+00:00,1001,70993,189325.22110047593,189560.11558295673,189113.72889443982,189169.38473813352,189568.16221096064,189551.39840261918,189352.2443595224,189488.63470418868,TASK2
2026-05-11T11:19:56.158+00:00,1001,70994,189336.75460061486,189571.6490830957,189125.26239457875,189180.91823827245,189579.6957110996,189563.20012369158,189363.50963872788,189500.1682043276,TASK2
2026-05-11T11:19:56.158+00:00,1001,70995,189364.11313582814,189599.00761830897,189152.62092979203,189208.0085525523,189607.05424631288,189590.82687983834,189390.86817394115,189527.79496047436,TASK2
2026-05-11T11:19:56.158+00:00,1001,70996,189376.71951970094,189611.61400218177,189165.22731366483,189220.6149364251,189619.66063018568,189603.16504277766,189403.20633688048,189539.86490248024,TASK2
2026-05-11T11:19:56.158+00:00,1001,70997,189367.3988422631,189602.56154567737,189156.17485716043,189211.2942589872,189612.75394114899,189596.25835374097,189396.29964784379,189532.68999251007,TASK2
2026-05-11T11:19:56.158+00:00,1001,70998,189351.6408624221,189587.07178676984,189140.6850982529,189195.53627914624,189597.80062410838,189581.30503670036,189381.07810986973,189517.73667546947,TASK2
2026-05-11T11:19:56.158+00:00,1001,70999,189349.8303711212,189585.26129546895,189138.87460695204,189193.72578784535,189593.30792347286,189576.81233606485,189376.8536301677,189513.7804167009,TASK2
2026-05-11T11:19:56.158+00:00,1001,71000,189377.72534820143,189613.15627254918,189166.76958403224,189221.88898585903,189620.93467961962,189604.4390922116,189404.48038631445,189541.40717284766,TASK2
2026-05-11T11:19:56.158+00:00,1001,71001,189388.72240647345,189623.88510988772,189177.4984213708,189232.6178231976,189631.93173789163,189615.4361504836,189415.47744458646,189552.1360101862,TASK2
2026-05-11T11:19:56.571+00:00,1002,71002,189368.1364498301,189603.83559511133,189156.91246472747,189212.3000874877,189611.3457812483,189595.11841477375,189395.15970887657,189531.81827447633,TASK2
2026-05-11T11:19:56.571+00:00,1002,71003,189346.20938851946,189581.90853380066,189135.25362435027,189190.64124711053,189589.41871993765,189572.92313252963,189373.23264756592,189509.89121316565,TASK2
2026-05-11T11:19:56.571+00:00,1002,71004,189357.7428886584,189593.17381300614,189146.51890355576,189201.63830538254,189600.95222007658,189584.18841173511,189384.4979267714,189521.15649237114,TASK2
2026-05-11T11:19:56.571+00:00,1002,71005,189383.22387733744,189618.6548016852,189171.73167130133,189226.8510731281,189626.16498782218,189609.4011794807,189409.97891545045,189546.3692601167,TASK2
2026-05-11T11:19:56.571+00:00,1002,71006,189391.80694720827,189626.96965062257,189180.31474117216,189235.70236393242,189635.01627862648,189618.52069121847,189418.83020625476,189555.4887718545,TASK2
2026-05-11T11:19:56.571+00:00,1002,71007,189369.61166496415,189605.0425893119,189158.65590079498,189214.0435235552,189613.0892173158,189596.5936299078,189396.90314494408,189533.56171054384,TASK2
2026-05-11T11:19:56.571+00:00,1002,71008,189349.96448158796,189584.72485360203,189138.7404964853,189193.79284307873,189592.70442637257,189576.41000466465,189376.6524644676,189513.10986436723,TASK2
2026-05-11T11:19:56.571+00:00,1002,71009,189363.10730732768,189597.86767934175,189152.15154315848,189207.2038897519,189605.8472521123,189589.55283040437,189389.79529020732,189526.25269010695,TASK2
2026-05-11T11:19:56.571+00:00,1002,71010,189390.19762160748,189625.22621455503,189179.51007837176,189234.29420403173,189632.93756639212,189616.91136561768,189417.1538254206,189553.34300438678,TASK2
2026-05-11T11:19:56.571+00:00,1002,71011,189399.85357521218,189634.6139472263,189189.16603197646,189243.95015763643,189642.59351999682,189626.56731922238,189426.54155809182,189562.99895799148,TASK2
2026-05-11T11:19:56.571+00:00,1002,71012,189384.36381630466,189618.8559673853,189173.4080521355,189228.19217779543,189628.4448657566,189612.1504440487,189411.8564619847,189548.5820828178,TASK2
2026-05-11T11:19:56.571+00:00,1002,71013,189363.50963872788,189598.27001074195,189152.55387455868,189207.33800021865,189607.5906881798,189591.29626647188,189391.00228440788,189527.727905241,TASK2
2026-05-11T11:19:56.571+00:00,1002,71014,189375.57958073373,189610.60817368128,189164.62381656453,189219.67616315797,189618.5877464518,189602.2933247439,189402.26756361336,189538.99318444647,TASK2
2026-05-11T11:19:56.571+00:00,1002,71015,189404.81566248127,189639.84425542882,189194.12811924555,189248.9122449055,189647.82382819935,189631.52940649143,189431.5036453609,189568.22926619402,TASK2
2026-05-11T11:19:56.571+00:00,1002,71016,189416.08094168676,189650.84131370083,189205.393398451,189259.90930317753,189659.08910740484,189642.79468569692,189442.50070363292,189579.22632446603,TASK2
2026-05-11T11:19:56.571+00:00,1002,71017,189396.83608971073,189631.5964617248,189186.41676740846,189240.6644512015,189639.84425542882,189623.5498337209,189422.98763072342,189559.98147249,TASK2
2026-05-11T11:19:56.571+00:00,1002,71018,189376.78657493432,189611.27872601495,189166.0990316986,189220.6149364251,189619.52651971896,189603.23209801104,189403.20633688048,189539.9319577136,TASK2
2026-05-11T11:19:56.571+00:00,1002,71019,189389.66117974056,189624.42155175467,189179.24185743832,189233.7577621648,189632.66934545868,189616.37492375076,189416.3491626202,189553.0747834533,TASK2
2026-05-11T11:19:56.571+00:00,1002,71020,189414.6057265527,189649.36609856677,189204.18640425045,189258.70230897694,189657.61389227078,189641.31947056286,189441.29370943233,189578.01933026544,TASK2
2026-05-11T11:19:56.571+00:00,1002,71021,189421.57947082276,189656.6080637703,189211.6965903874,189265.94427418045,189665.12407840777,189648.5614357664,189448.53567463584,189585.52951640243,TASK2
2026-05-11T11:19:56.571+00:00,1002,71022,189399.11596764516,189634.14456059271,189188.96486627636,189243.2125500694,189642.39235429672,189626.0979325888,189426.07217145828,189562.5295713579,TASK2
2026-05-11T11:19:56.571+00:00,1002,71023,189377.72534820143,189612.75394114899,189167.57424683264,189222.09015155912,189621.001734853,189604.97553407855,189404.68155201455,189541.13895191418,TASK2
2026-05-11T11:19:56.571+00:00,1002,71024,189389.79529020732,189624.28744128792,189179.37596790504,189233.89187263153,189632.8034559254,189616.77725515096,189416.48327308695,189553.20889392006,TASK2
2026-05-11T11:19:56.571+00:00,1002,71025,189415.81272075328,189650.3048718339,189205.92984031796,189260.17752411097,189658.82088647137,189643.0629066304,189442.7689245664,189579.22632446603,TASK2
2026-05-11T11:19:56.571+00:00,1002,71026,189425.73689529143,189660.49726730553,189216.12223578957,189270.3699195826,189669.013281943,189653.255302102,189452.961320038,189589.41871993765,TASK2
2026-05-11T11:19:56.571+00:00,1002,71027,189405.41915958156,189640.17953159564,189195.53627914624,189250.05218387273,189648.96376716657,189632.93756639212,189432.37536339465,189569.10098422779,TASK2
2026-05-11T11:19:56.571+00:00,1002,71028,189385.90608667207,189620.13001681922,189175.7549853033,189230.0026690963,189629.18247332363,189613.15627254918,189412.5940695517,189549.5879113183,TASK2
2026-05-11T11:19:56.571+00:00,1002,71029,189400.65823801258,189634.88216815973,189190.50713664378,189245.02304137027,189643.93462466414,189627.9084238897,189427.3462208922,189564.07184172532,TASK2
2026-05-11T11:19:56.571+00:00,1002,71030,189428.28499415933,189662.5089243065,189218.402113724,189272.64979751705,189671.82960174436,189655.53518003644,189455.24119797244,189591.96681880555,TASK2
2026-05-11T11:19:56.571+00:00,1002,71031,189437.94094776403,189672.43309884466,189228.32628826218,189282.5739720552,189681.7537762825,189665.4593545746,189464.89715157714,189601.8909933437,TASK2
2026-05-11T11:19:56.571+00:00,1002,71032,189417.62321205417,189651.84714220132,189207.74033161884,189261.71979447838,189660.63137777225,189644.87339793125,189444.57941586725,189581.57325763383,TASK2
2026-05-11T11:19:56.571+00:00,1002,71033,189398.11013914467,189632.6022902253,189186.68498834193,189241.80439016872,189640.38069729574,189624.5556622214,189424.86517725768,189561.3896323907,TASK2
2026-05-11T11:19:56.571+00:00,1002,71034,189411.2529648844,189645.74511596502,189199.82781408165,189254.94721590844,189653.79174396893,189637.43026702764,189438.0080029974,189574.26423719694,TASK2
2026-05-11T11:19:56.571+00:00,1002,71035,189440.2208256985,189674.98119771256,189229.0638958292,189284.18329765598,189683.02782571648,189666.66634877518,189467.24408474495,189603.50031894448,TASK2
2026-05-11T11:19:56.571+00:00,1002,71036,189448.26745370237,189683.02782571648,189236.84230289963,189291.96170472642,189690.8062327869,189674.7129767791,189475.29071274886,189611.5469469484,TASK2
2026-05-11T11:19:56.571+00:00,1002,71037,189426.07217145828,189660.83254347235,189214.6470206555,189269.7664224823,189668.87917147626,189652.78591546844,189453.09543050473,189589.61988563775,TASK2
2026-05-11T11:19:56.571+00:00,1002,71038,189406.55909854878,189641.31947056286,189195.13394774604,189249.98512863935,189649.36609856677,189633.27284255894,189433.3141366618,189570.10681272825,TASK2
2026-05-11T11:19:56.571+00:00,1002,71039,189418.8972614881,189653.6576335022,189207.2038897519,189262.05507064523,189661.70426150612,189645.6110054983,189445.65229960112,189582.17675473413,TASK2
2026-05-11T11:19:56.571+00:00,1002,71040,189445.18291296755,189680.2115059151,189233.7577621648,189288.60894305812,189687.98991298556,189672.1648779112,189472.206172014,189608.73062714704,TASK2
2026-05-11T11:19:56.571+00:00,1002,71041,189456.71641310648,189691.47678512058,189245.29126230374,189300.14244319708,189699.5234131245,189683.43015711667,189483.4714512195,189620.26412728598,TASK2
2026-05-11T11:19:56.571+00:00,1002,71042,189443.37242166666,189678.4010146142,189232.2154917974,189287.0666726907,189688.32518915238,189671.9637122111,189471.73678538046,189608.52946144695,TASK2
2026-05-11T11:19:56.571+00:00,1002,71043,189423.0546859568,189658.08327890435,189211.8977560875,189266.74893698085,189667.20279064213,189650.84131370083,189451.15082873713,189587.40706293666,TASK2
2026-05-11T11:19:56.571+00:00,1002,71044,189431.9059767611,189666.93456970865,189220.2126050249,189275.60022778515,189674.98119771256,189658.61972077127,189458.92923580756,189595.18547000713,TASK2
2026-05-11T11:19:56.571+00:00,1002,71045,189458.99629104094,189694.29310492193,189247.57114023817,189302.690542065,189702.33973292584,189685.7100350511,189486.28777102087,189622.5440052204,TASK2
2026-05-11T11:19:56.571+00:00,1002,71046,189467.04291904485,189702.33973292584,189255.61776824208,189311.00539100234,189710.65458186323,189694.0248839885,189494.33439902478,189630.59063322432,TASK2
2026-05-11T11:19:56.571+00:00,1002,71047,189445.38407866764,189680.68089254867,189233.9589278649,189289.0783296917,189688.72752055258,189672.09782267784,189472.4073377141,189608.93179284714,TASK2
2026-05-11T11:19:56.571+00:00,1002,71048,189424.7981220243,189659.82671497186,189213.37297122157,189268.49237304836,189667.87334297577,189651.5118660345,189451.82138107077,189588.34583620378,TASK2
2026-05-11T11:19:56.571+00:00,1002,71049,189437.13628496364,189672.1648779112,189225.7111341609,189280.83053598768,189680.2115059151,189663.85002897383,189464.42776494357,189600.41577820966,TASK2
2026-05-11T11:19:56.571+00:00,1002,71050,189463.42193644308,189698.45052939063,189252.2650065738,189307.11618746712,189706.765378328,189690.40390138672,189490.713416423,189626.7014296891,TASK2
2026-05-11T11:19:56.571+00:00,1002,71051,189471.73678538046,189707.03359926146,189260.84807644464,189315.69925733795,189715.34844819884,189698.98697125757,189499.29648629384,189635.5527204934,TASK2
2026-05-11T11:19:56.571+00:00,1002,71052,189450.6143868702,189686.17942168468,189239.99389886783,189294.5768588277,189694.2260496886,189677.8645727473,189478.17408778358,189614.43032198315,TASK2
2026-05-11T11:19:56.571+00:00,1002,71053,189431.63775582763,189666.93456970865,189220.7490468918,189275.0637859182,189674.7129767791,189658.61972077127,189458.66101487412,189595.18547000713,TASK2
2026-05-11T11:19:56.571+00:00,1002,71054,189446.6581281016,189681.68672104916,189235.23297729885,189289.8159372587,189689.4651281196,189673.37187211178,189473.4131662146,189610.20584228108,TASK2
2026-05-11T11:19:56.571+00:00,1002,71055,189473.48022144797,189708.777035329,189262.05507064523,189316.63803060507,189716.55544239943,189700.4621863916,189500.50348049443,189637.29615656091,TASK2
2026-05-11T11:19:56.571+00:00,1002,71056,189483.13617505267,189718.70120986714,189271.97924518338,189326.8304260767,189726.74783787105,189710.65458186323,189510.4276550326,189647.22033109906,TASK2
2026-05-11T11:19:56.571+00:00,1002,71057,189463.35488120973,189698.9199160242,189252.4661722739,189307.04913223375,189706.9665440281,189691.14150895376,189491.18280305658,189627.97547912304,TASK2
2026-05-11T11:19:56.571+00:00,1002,71058,189442.50070363292,189677.52929658047,189231.34377376363,189286.19495465697,189685.57592458438,189669.48266857656,189469.52396267938,189606.58485967934,TASK2
2026-05-11T11:19:56.571+00:00,1002,71059,189455.64352937264,189690.6721223202,189244.75482043682,189299.60600133013,189698.7187503241,189682.89371524975,189482.93500935257,189619.9959063525,TASK2
2026-05-11T11:19:56.571+00:00,1002,71060,189483.0691198193,189718.29887846694,189272.04630041675,189327.2327574769,189726.27845123748,189710.25225046303,189510.6288207327,189647.08622063234,TASK2
2026-05-11T11:19:56.571+00:00,1002,71061,189491.38396875668,189726.34550647085,189280.09292842066,189335.2793854808,189734.59330017486,189718.29887846694,189518.6754487366,189655.40106956972,TASK2
2026-05-11T11:19:56.571+00:00,1002,71062,189469.18868651256,189704.15022422673,189258.16586711,189313.35232417015,189712.6662388642,189696.10359622282,189496.21194555901,189633.2057873256,TASK2
2026-05-11T11:19:56.571+00:00,1002,71063,189449.40739266961,189684.10070945031,189238.1163523336,189293.30280939373,189692.6167240878,189676.0540814464,189476.43065171607,189613.15627254918,TASK2
2026-05-11T11:19:56.571+00:00,1002,71064,189461.74555560894,189696.1706514562,189250.18629433945,189305.3727513996,189704.68666609365,189688.12402345228,189488.50059372192,189625.22621455503,TASK2
2026-05-11T11:19:56.571+00:00,1002,71065,189486.15366055412,189720.57875640137,189274.59439928466,189329.51263541135,189729.09477103886,189712.53212839746,189512.64047773366,189649.63431950024,TASK2
2026-05-11T11:19:56.571+00:00,1002,71066,189493.93206762458,189728.89360533876,189282.90924822201,189337.8274843487,189737.40961997624,189721.11519826832,189520.95532667104,189657.94916843763,TASK2
2026-05-11T11:19:56.571+00:00,1002,71067,189474.4189947151,189709.3805324293,189263.12795437907,189317.77796957231,189717.62832613327,189701.33390442538,189501.44225376155,189638.16787459468,TASK2
2026-05-11T11:19:56.571+00:00,1002,71068,189456.24702647293,189691.47678512058,189245.22420707037,189299.8742222636,189699.45635789112,189683.1619361832,189483.53850645287,189619.9959063525,TASK2
2026-05-11T11:19:56.571+00:00,1002,71069,189470.4627359465,189705.69249459414,189259.43991654395,189314.08993173717,189713.94028829815,189697.1094247233,189497.75421592643,189634.2116158261,TASK2
2026-05-11T11:19:56.571+00:00,1002,71070,189497.0166083594,189731.70992514014,189285.7255680234,189340.3755832166,189740.2259397776,189723.12685526928,189523.77164647242,189660.49726730553,TASK2
2026-05-11T11:19:56.571+00:00,1002,71071,189506.1361200972,189740.8294368779,189294.84507976117,189349.76331588786,189749.34545151537,189732.51458794053,189532.89115821017,189669.61677904328,TASK2
2026-05-11T11:19:56.571+00:00,1002,71072,189498.96121012702,189733.65452690775,189287.670169791,189342.5884059177,189745.1209718133,189728.55832917194,189528.66667850813,189665.39229934124,TASK2
2026-05-11T11:19:56.571+00:00,1002,71073,189485.34899775372,189720.31053546793,189274.32617835118,189329.24441447787,189731.77698037348,189714.94611679864,189515.3226870683,189652.04830790142,TASK2
2026-05-11T11:19:56.571+00:00,1002,71074,189485.14783205366,189720.10936976783,189273.85679171764,189328.77502784433,189728.62538440528,189711.79452083044,189512.43931203356,189648.89671193322,TASK2
2026-05-11T11:19:56.571+00:00,1002,71075,189513.84747193425,189748.54078871498,189302.55643159823,189357.47466772492,189757.3250242859,189740.49416071107,189540.60251004726,189677.0599099469,TASK2
2026-05-11T11:19:56.571+00:00,1002,71076,189525.11275113974,189759.80606792046,189313.82171080372,189368.47172599693,189768.5903034914,189751.75943991655,189551.86778925272,189688.59341008583,TASK2
2026-05-11T11:19:56.872+00:00,1003,71077,189504.79501542985,189739.75655314405,189293.7721960273,189348.42221122052,189748.54078871498,189731.70992514014,189532.08649540978,189668.54389530944,TASK2
2026-05-11T11:19:56.872+00:00,1003,71078,189484.47727971998,189719.43881743416,189273.45446031744,189327.83625457718,189727.95483207164,189711.39218943025,189511.232317833,189647.68971773263,TASK2
2026-05-11T11:19:56.872+00:00,1003,71079,189495.20611705852,189730.70409663965,189284.45151858946,189339.10153378267,189738.95189034365,189722.38924770226,189522.22937610498,189658.68677600464,TASK2
2026-05-11T11:19:56.872+00:00,1003,71080,189518.00489640294,189753.2346550506,189306.9820770004,189361.6320921936,189761.75066968807,189745.18802704668,189544.75993451595,189681.48555534906,TASK2
2026-05-11T11:19:56.872+00:00,1003,71081,189522.83287320528,189758.06263185292,189311.81005380274,189366.46006899595,189766.5786464904,189750.016003849,189549.31969038481,189686.3135321514,TASK2
2026-05-11T11:19:56.872+00:00,1003,71082,189498.76004442692,189734.25802400804,189287.73722502438,189342.65546115107,189742.7740386455,189725.94317507066,189525.78330347338,189662.77714523996,TASK2
2026-05-11T11:19:56.872+00:00,1003,71083,189477.9058668501,189713.40384643123,189266.88304744757,189321.80128357426,189721.91986106872,189705.08899749385,189504.9291258966,189641.92296766315,TASK2
2026-05-11T11:19:56.872+00:00,1003,71084,189491.58513445678,189727.35133497135,189280.83053598768,189335.4805511809,189735.86734960883,189719.03648603396,189518.8766144367,189655.87045620327,TASK2
2026-05-11T11:19:56.872+00:00,1003,71085,189518.94366967006,189754.44164925118,189308.189071201,189362.57086546073,189763.2258848221,189746.1268003138,189546.23514965,189682.69254954965,TASK2
2026-05-11T11:19:56.872+00:00,1003,71086,189529.13606514168,189764.36582378933,189318.3814666726,189372.76326093235,189773.41828029373,189756.3191957854,189556.15932418816,189692.88494502127,TASK2
2026-05-11T11:19:56.872+00:00,1003,71087,189508.81832943182,189744.3163090129,189298.60017282964,189352.71374615596,189753.3687655173,189736.269681009,189536.10980941175,189673.1036511783,TASK2
2026-05-11T11:19:56.872+00:00,1003,71088,189491.45102399003,189727.21722450462,189281.23286738788,189335.34644071417,189736.00146007555,189718.90237556724,189519.01072490343,189655.73634573654,TASK2
2026-05-11T11:19:56.872+00:00,1003,71089,189508.61716373172,189744.1151433128,189298.1307861961,189352.2443595224,189752.89937888377,189735.80029437545,189535.64042277817,189672.63426454476,TASK2
2026-05-11T11:19:56.872+00:00,1003,71090,189536.7803617454,189772.01012039304,189326.02576327632,189380.40755753606,189781.06257689744,189763.96349238913,189563.80362079188,189700.529241625,TASK2
2026-05-11T11:19:56.872+00:00,1003,71091,189548.7832485179,189783.47656529862,189337.4251529485,189392.41044430857,189791.72435900263,189775.4299372947,189575.87356279773,189712.33096269736,TASK2
2026-05-11T11:19:56.872+00:00,1003,71092,189527.39262907417,189762.35416678837,189316.30275443825,189371.2880457983,189770.3337395589,189754.30753878446,189554.482943354,189690.94034325366,TASK2
2026-05-11T11:19:56.872+00:00,1003,71093,189506.53845149736,189741.768210145,189295.9850187284,189350.4338682215,189749.4795619821,189733.45336120765,189533.6287657772,189670.3543866103,TASK2
2026-05-11T11:19:56.872+00:00,1003,71094,189518.34017256976,189753.5699312174,189307.25029793385,189361.96736836043,189761.2812830545,189745.25508228005,189545.4304868496,189682.1561076827,TASK2
2026-05-11T11:19:56.872+00:00,1003,71095,189542.4800565815,189777.97803616262,189331.39018194558,189385.83903143872,189785.6893879997,189769.66318722523,189569.8385917948,189706.5642126279,TASK2
2026-05-11T11:19:56.872+00:00,1003,71096,189547.30803338386,189782.80601296495,189336.21815874794,189390.66700824106,189790.78558573552,189774.4911640276,189574.66656859714,189711.39218943025,TASK2
2026-05-11T11:19:56.872+00:00,1003,71097,189526.45385580705,189761.6836144547,189315.36398117113,189369.81283066425,189769.66318722523,189753.10054458387,189553.54417008688,189690.00156998652,TASK2
2026-05-11T11:19:56.872+00:00,1003,71098,189508.01366663142,189743.24342527907,189296.9237919955,189351.6408624221,189751.2229980496,189734.66035540824,189535.10398091126,189671.5613808109,TASK2
2026-05-11T11:19:56.872+00:00,1003,71099,189521.69293423806,189756.9226928857,189310.87128053562,189365.32013002873,189764.90226565627,189748.60784394835,189549.05146945137,189685.24064841756,TASK2
2026-05-11T11:19:56.872+00:00,1003,71100,189549.05146945137,189784.01300716554,189337.96159481545,189392.67866524204,189791.72435900263,189775.69815822816,189576.1417837312,189712.33096269736,TASK2
2026-05-11T11:19:56.872+00:00,1003,71101,189558.9756439895,189793.93718170372,189347.8857693536,189402.6028397802,189801.91675447425,189785.8905536998,189586.06595826935,189722.25513723554,TASK2
2026-05-11T11:19:56.872+00:00,1003,71102,189553.6782805536,189788.6398182678,189342.5884059177,189397.30547634428,189799.8380422399,189784.08006239892,189584.52368790194,189720.44464593465,TASK2
2026-05-11T11:19:56.872+00:00,1003,71103,189545.96692871652,189781.19668736416,189334.8770540806,189389.86234544066,189792.93135320322,189777.17337336222,189577.3487779318,189713.2697359645,TASK2
2026-05-11T11:19:56.872+00:00,1003,71104,189539.06023967985,189774.2899983275,189327.97036504393,189382.95565640397,189782.26957109803,189766.2433703236,189566.95521676008,189702.60795385932,TASK2
2026-05-11T11:19:56.872+00:00,1003,71105,189564.80944929234,189800.03920794,189353.45135372298,189408.7048660165,189807.4823388436,189791.72435900263,189592.43620543912,189728.35716347184,TASK2
2026-05-11T11:19:56.872+00:00,1003,71106,189573.3925191632,189808.62227781085,189362.0344235938,189417.01971495387,189816.06540871446,189800.30742887346,189601.01927530995,189736.94023334267,TASK2
2026-05-11T11:19:56.872+00:00,1003,71107,189550.9290159856,189786.42699556673,189339.57092041624,189394.82443270975,189793.87012647034,189777.8439256959,189578.55577213236,189714.4767301651,TASK2
2026-05-11T11:19:56.872+00:00,1003,71108,189530.34305934227,189765.57281798992,189319.25318470635,189374.50669699986,189773.55239076045,189757.526189986,189557.96981548902,189694.1589944552,TASK2
2026-05-11T11:19:56.872+00:00,1003,71109,189543.21766414854,189778.71564372964,189332.1277895126,189387.38130180613,189786.42699556673,189770.66901572573,189570.8444202953,189707.03359926146,TASK2
2026-05-11T11:19:56.872+00:00,1003,71110,189570.0397574949,189805.26951614255,189358.41344099207,189413.93517421902,189812.9808679796,189797.22288813864,189597.66651364166,189733.85569260785,TASK2
