timestamp_utc,packet_index,sample_index,AF3,AF4,F3,F4,FC5,FC6,O2,O1,label
2026-04-28T10:32:09.207+00:00,1043,74177,179162.26287630355,179395.5480331836,178959.35374013823,179014.47314196502,179395.21275701676,179376.50434690766,179181.91005967977,179317.83101771248,TASK2
2026-04-28T10:32:09.207+00:00,1043,74178,179177.81969044445,179411.1048473245,178974.64233334566,179029.493514239,179410.23312929072,179391.7929401151,179197.1986528872,179333.1196109199,TASK2
2026-04-28T10:32:09.207+00:00,1043,74179,179166.35324553886,179399.90662335238,178963.71233030703,179018.56351120037,179399.30312625208,179380.59471614298,179186.00042891508,179321.9213869478,TASK2
2026-04-28T10:32:09.207+00:00,1043,74180,179142.81685862743,179376.37023644094,178939.9077224621,178995.0271242889,179376.0349602741,179356.79010829807,179162.46404200364,179298.38500003636,TASK2
2026-04-28T10:32:09.207+00:00,1043,74181,179143.35330049435,179376.63845737439,178939.9077224621,178995.29534522237,179376.30318120756,179357.05832923154,179162.73226293712,179298.65322096983,TASK2
2026-04-28T10:32:09.207+00:00,1043,74182,179160.25121930256,179393.26815524916,178956.53742033688,179012.1932640306,179392.9328790823,179373.95624803976,179179.6301817453,179315.28291884458,TASK2
2026-04-28T10:32:09.207+00:00,1043,74183,179176.8809171773,179410.16607405734,178973.4353391451,179028.5547409719,179409.56257695705,179390.31772498105,179196.52810055352,179332.1808376528,TASK2
2026-04-28T10:32:09.207+00:00,1043,74184,179167.56023973945,179400.8453966195,178964.3828826407,179019.50228446748,179399.97367858572,179380.99704754318,179186.9392021822,179322.8601602149,TASK2
2026-04-28T10:32:09.207+00:00,1043,74185,179144.8285156284,179378.11367250845,178941.65115852965,178997.03878128988,179377.51017540816,179358.26532343213,179164.20747807116,179300.12843610387,TASK2
2026-04-28T10:32:09.207+00:00,1043,74186,179147.7789458965,179380.79588184308,178944.60158879776,178999.72099062454,179380.46060567626,179361.21575370023,179167.15790833926,179303.07886637197,TASK2
2026-04-28T10:32:09.207+00:00,1043,74187,179167.35907403936,179400.10778905248,178964.1817169406,179019.0328978339,179399.77251288563,179380.79588184308,179186.46981554865,179322.65899451482,TASK2
2026-04-28T10:32:09.207+00:00,1043,74188,179187.47564404912,179420.4925799957,178984.29828695036,179039.1494678437,179419.88908289542,179400.91245185287,179206.8546064919,179343.04378545808,TASK2
2026-04-28T10:32:09.207+00:00,1043,74189,179179.22785034514,179412.51300722515,178976.31871417983,179031.16989507314,179411.90951012485,179392.9328790823,179199.1432546548,179334.79599175407,TASK2
2026-04-28T10:32:09.207+00:00,1043,74190,179158.64189370177,179392.1952715153,178955.7327575365,179010.85215936328,179391.85999534847,179373.15158523936,179179.0937398784,179314.74647697766,TASK2
2026-04-28T10:32:09.207+00:00,1043,74191,179159.44655650217,179392.99993431568,178956.53742033688,179011.65682216367,179392.9328790823,179374.22446897323,179180.16662361225,179316.08758164497,TASK2
2026-04-28T10:32:09.207+00:00,1043,74192,179176.07625437694,179409.36141125695,178972.6306763447,179028.2865200384,179408.4896932232,179389.7812831141,179195.9916586866,179331.91261671932,TASK2
2026-04-28T10:32:09.207+00:00,1043,74193,179193.2423941186,179426.52755099864,178989.79681608637,179045.45265978007,179425.65583296487,179406.67920192232,179212.88957749482,179348.81053552753,TASK2
2026-04-28T10:32:09.207+00:00,1043,74194,179183.11705388036,179416.67043169384,178980.20791771504,179035.5955404753,179415.53049272663,179396.55386168408,179203.03245819002,179338.95341622274,TASK2
2026-04-28T10:32:09.207+00:00,1043,74195,179162.53109723702,179396.0844750505,178959.6219610717,179014.7413628985,179394.9445360833,179375.96790504074,179182.44650154668,179318.3674595794,TASK2
2026-04-28T10:32:09.207+00:00,1043,74196,179167.62729497283,179401.18067278631,178964.986379741,179020.10578156778,179400.30895475257,179381.06410277655,179187.81092021597,179323.4636573152,TASK2
2026-04-28T10:32:09.207+00:00,1043,74197,179188.548527783,179422.1019055965,178985.37117068423,179041.02701437793,179420.96196662926,179401.71711465323,179208.73215302613,179344.11666919192,TASK2
2026-04-28T10:32:09.207+00:00,1043,74198,179208.3968768593,179442.48669653974,179005.21951976055,179060.87536345425,179440.81031570557,179421.83368466303,179228.58050210244,179363.96501826824,TASK2
2026-04-28T10:32:09.207+00:00,1043,74199,179202.4960163231,179435.8482284365,178999.1845487576,179054.77333721795,179435.37884180294,179416.06693459355,179221.47264736565,179357.19243969826,TASK2
2026-04-28T10:32:09.207+00:00,1043,74200,179181.91005967977,179414.9940508597,178978.59859211426,179034.1873805746,179414.7928851596,179395.4809779502,179200.8866907223,179336.60648305493,TASK2
2026-04-28T10:32:09.207+00:00,1043,74201,179185.3969318148,179418.48092299473,178982.35368518275,179037.9424736431,179418.27975729463,179398.96785008523,179204.37356285733,179340.09335518998,TASK2
2026-04-28T10:32:09.207+00:00,1043,74202,179206.31816462494,179439.40215580488,179003.2749179929,179058.86370645327,179438.93276917134,179420.15730382886,179225.56301660097,179361.2828089336,TASK2
2026-04-28T10:32:09.207+00:00,1043,74203,179225.89829276782,179458.71406301428,179022.5868252023,179078.1756136627,179458.2446763807,179439.46921103826,179244.87492381036,179380.86293707645,TASK2
2026-04-28T10:32:09.207+00:00,1043,74204,179217.91871999725,179451.0027111772,179014.87547336522,179070.46426182557,179450.53332454365,179431.48963826773,179236.89535103983,179372.8833643059,TASK2
2026-04-28T10:32:09.207+00:00,1043,74205,179204.8429494909,179438.19516160432,179001.79970285887,179057.65671225268,179440.13976337193,179420.82785616253,179226.5017898681,179362.22158220073,TASK2
2026-04-28T10:32:09.207+00:00,1043,74206,179212.88957749482,179445.97356867476,179009.84633086278,179065.7033402566,179448.72283324276,179429.67914696684,179235.3530806724,179370.80465207156,TASK2
2026-04-28T10:32:09.207+00:00,1043,74207,179212.1519699278,179445.5041820412,179009.10872329577,179064.6975117561,179445.03479540764,179426.25933006516,179231.93326377074,179367.38483516988,TASK2
2026-04-28T10:32:09.207+00:00,1043,74208,179227.17234220175,179460.52455431517,179024.12909556972,179079.98610496355,179460.0551676816,179441.5479232726,179246.9536360447,179382.40520744387,TASK2
2026-04-28T10:32:09.207+00:00,1043,74209,179215.97411822964,179449.05810940958,179012.66265066416,179068.78788099144,179448.58872277604,179429.81325743356,179235.48719113914,179370.93876253828,TASK2
2026-04-28T10:32:09.207+00:00,1043,74210,179192.16951038476,179425.25350156467,178989.12626375273,179044.98327314653,179425.05233586457,179406.00864958868,179211.68258329423,179347.1341546934,TASK2
2026-04-28T10:32:09.207+00:00,1043,74211,179192.70595225168,179426.05816436507,178989.66270561964,179045.51971501345,179425.58877773152,179406.5450914556,179212.21902516115,179347.67059656032,TASK2
2026-04-28T10:32:09.207+00:00,1043,74212,179209.87209199334,179443.22430410676,179007.09706629478,179062.68585475514,179443.02313840666,179423.97945213073,179229.65338583628,179365.37317816893,TASK2
2026-04-28T10:32:09.207+00:00,1043,74213,179226.77001080156,179460.12222291497,179023.72676416952,179079.3155526299,179459.6528362814,179440.87737093895,179246.28308371105,179382.00287604367,TASK2
2026-04-28T10:32:09.207+00:00,1043,74214,179217.71755429715,179451.06976641057,179014.67430766512,179070.53131705895,179450.86860071047,179432.09313536802,179237.23062720665,179372.6821986058,TASK2
2026-04-28T10:32:09.207+00:00,1043,74215,179195.52227205303,179428.60626323297,178992.74724635447,179048.33603481483,179428.40509753287,179409.62963219042,179215.03534496253,179350.4869163617,TASK2
2026-04-28T10:32:09.207+00:00,1043,74216,179197.13159765382,179430.21558883376,178994.35657195526,179049.94536041562,179429.74620220021,179410.97073685774,179216.6446705633,179351.828021029,TASK2
2026-04-28T10:32:09.207+00:00,1043,74217,179215.63884206282,179448.9910541762,179012.86381636426,179068.4526048246,179448.52166754266,179429.47798126674,179235.1519149723,179370.33526543799,TASK2
2026-04-28T10:32:09.207+00:00,1043,74218,179234.14608647182,179467.7665195187,179031.37106077324,179086.95984923362,179467.2971328851,179448.2534466092,179254.1956012482,179389.3789517139,TASK2
2026-04-28T10:32:09.207+00:00,1043,74219,179226.97117650165,179460.59160954852,179024.1961508031,179079.51671833,179460.12222291497,179440.81031570557,179247.02069127807,179382.20404174377,TASK2
2026-04-28T10:32:09.207+00:00,1043,74220,179203.97123145714,179437.85988543747,179001.46442669205,179056.78499421894,179437.12227787045,179418.07859159453,179224.02074623355,179359.47231763272,TASK2
2026-04-28T10:32:09.207+00:00,1043,74221,179204.2394523906,179437.85988543747,179001.7326476255,179057.05321515238,179437.39049880393,179418.346812528,179224.28896716703,179359.47231763272,TASK2
2026-04-28T10:32:09.207+00:00,1043,74222,179223.81958053345,179457.7082345138,179021.5809967018,179076.63334329525,179457.23884788022,179437.92694067085,179243.86909530987,179379.05244577557,TASK2
2026-04-28T10:32:09.207+00:00,1043,74223,179242.59504587593,179476.7519207897,179040.35646204426,179095.40880863773,179476.28253415614,179456.7024060133,179262.64456065232,179398.0961320515,TASK2
2026-04-28T10:32:09.207+00:00,1043,74224,179233.27436843805,179467.1630224184,179031.3040055399,179086.35635213333,179466.9618567183,179447.38172857545,179253.59210414792,179389.0436755471,TASK2
2026-04-28T10:32:09.207+00:00,1043,74225,179211.3473071274,179445.23596110774,179009.10872329577,179064.42929082265,179444.76657447417,179425.18644633132,179231.39682190382,179367.11661423644,TASK2
2026-04-28T10:32:09.207+00:00,1043,74226,179215.03534496253,179448.0522809091,179011.85798786377,179067.31266585737,179447.78405997565,179428.67331846635,179234.28019693855,179369.9329340378,TASK2
2026-04-28T10:32:09.207+00:00,1043,74227,179233.00614750458,179466.02308345117,179029.82879040582,179085.55168933293,179466.02308345117,179446.91234194188,179252.51922041408,179387.90373657987,TASK2
2026-04-28T10:32:09.207+00:00,1043,74228,179251.2451709801,179484.53032786015,179048.06781388135,179104.05893374194,179484.2621069267,179465.1513654174,179270.7582438896,179406.41098098888,TASK2
2026-04-28T10:32:09.207+00:00,1043,74229,179242.9973772761,179476.0143132227,179039.5517992439,179095.81114003793,179475.74609228922,179456.9035717134,179262.5104501856,179398.16318728487,TASK2
2026-04-28T10:32:09.207+00:00,1043,74230,179221.6067578324,179454.62369377897,179018.4294007336,179074.1522996607,179454.62369377897,179435.51295226967,179241.11983074187,179377.04078877458,TASK2
2026-04-28T10:32:09.207+00:00,1043,74231,179224.02074623355,179457.03768218012,179020.8433891348,179076.56628806188,179457.3059031136,179437.65871973737,179243.26559820957,179379.45477717576,TASK2
2026-04-28T10:32:09.207+00:00,1043,74232,179243.33265344295,179476.617810323,179039.88707541072,179095.87819527127,179476.88603125644,179457.23884788022,179262.84572635242,179398.76668438513,TASK2
2026-04-28T10:32:09.207+00:00,1043,74233,179263.18100251927,179496.46615939928,179060.00364542048,179115.99476528107,179496.73438033275,179477.08719695653,179282.69407542874,179418.61503346145,TASK2
2026-04-28T10:32:09.207+00:00,1043,74234,179256.54253441602,179489.5594703626,179053.36517731726,179109.35629717784,179490.09591222953,179470.4487288533,179276.0556073255,179411.97656535823,TASK2
2026-04-28T10:32:09.207+00:00,1043,74235,179238.63878710734,179471.6557230539,179035.1932090751,179091.45254986914,179472.72860678774,179453.349644345,179258.9565228172,179394.60925991647,TASK2
2026-04-28T10:32:09.207+00:00,1043,74236,179238.90700804078,179472.19216492082,179035.72965094203,179091.45254986914,179473.53326958814,179453.88608621195,179259.7611856176,179395.41392271686,TASK2
2026-04-28T10:32:09.207+00:00,1043,74237,179252.8544965809,179486.13965346094,179049.94536041562,179105.6682593427,179486.4078743944,179466.7606910182,179272.63579042384,179408.55674845658,TASK2
2026-04-28T10:32:09.207+00:00,1043,74238,179271.89818285682,179504.9151188034,179068.9890466915,179124.44372468517,179504.9151188034,179485.53615636064,179291.41125576632,179427.33221379903,TASK2
2026-04-28T10:32:09.207+00:00,1043,74239,179262.57750541897,179495.32622043206,179059.13192738674,179114.85482631385,179495.32622043206,179475.94725798932,179281.822357395,179418.01153636115,TASK2
2026-04-28T10:32:09.207+00:00,1043,74240,179239.30933944098,179472.0580544541,179036.13198234222,179091.58666033586,179472.32627538758,179452.9473129448,179258.82241235048,179394.7433703832,TASK2
2026-04-28T10:32:09.207+00:00,1043,74241,179239.10817374088,179471.58866782053,179035.66259570865,179091.11727370232,179472.12510968748,179452.47792631126,179258.08480478346,179394.27398374962,TASK2
2026-04-28T10:32:09.207+00:00,1043,74242,179255.46965068218,179487.95014476182,179051.75585171647,179107.47875064358,179488.48658662874,179468.83940325252,179274.44628172473,179410.9036816244,TASK2
2026-04-28T10:32:09.207+00:00,1043,74243,179272.3675694904,179505.11628450349,179068.6537705247,179124.64489038527,179505.11628450349,179485.73732206074,179291.34420053294,179427.80160043258,TASK2
2026-04-28T10:32:09.207+00:00,1043,74244,179262.24222925212,179495.25916519872,179058.7966512199,179114.519550147,179495.25916519872,179475.6119818225,179281.2188602947,179417.67626019433,TASK2
2026-04-28T10:32:09.207+00:00,1043,74245,179239.51050514108,179472.52744108767,179036.06492710885,179091.78782603596,179472.2592201542,179452.61203677798,179258.21891525018,179394.9445360833,TASK2
2026-04-28T10:32:09.207+00:00,1043,74246,179239.51050514108,179472.52744108767,179035.86376140875,179091.78782603596,179472.2592201542,179452.88025771145,179258.21891525018,179394.7433703832,TASK2
2026-04-28T10:32:09.207+00:00,1043,74247,179256.67664488277,179489.69358082933,179053.02990115044,179108.95396577765,179489.42535989586,179470.3146183866,179275.65327592532,179412.17773105833,TASK2
2026-04-28T10:32:09.207+00:00,1043,74248,179275.7203311587,179508.73726710526,179072.07358742636,179127.99765205357,179508.20082523834,179489.09008372904,179294.42874126777,179431.22141733425,TASK2
2026-04-28T10:32:09.207+00:00,1043,74249,179268.27720025508,179501.56235713512,179064.8986774562,179120.8227420834,179501.29413620164,179481.9151737589,179287.25383129762,179424.0465073641,TASK2
2026-04-28T10:32:09.207+00:00,1043,74250,179246.88658081135,179479.9035167579,179043.50805801246,179099.43212263967,179479.9035167579,179460.52455431517,179265.8632118539,179402.3876669869,TASK2
2026-04-28T10:32:09.207+00:00,1043,74251,179247.1548017448,179479.70235105781,179043.77627894594,179099.70034357315,179479.9035167579,179460.52455431517,179265.8632118539,179402.3876669869,TASK2
2026-04-28T10:32:09.207+00:00,1043,74252,179267.53959268803,179500.62358386797,179064.42929082265,179120.35335544986,179500.55652863462,179481.17756619185,179286.5162237306,179423.30889979706,TASK2
2026-04-28T10:32:09.207+00:00,1043,74253,179288.72904643166,179521.8130376116,179085.35052363283,179141.5428091935,179521.74598237826,179502.36701993548,179307.70567747424,179444.4983535407,TASK2
2026-04-28T10:32:09.207+00:00,1043,74254,179281.55413646152,179514.63812764146,179078.1756136627,179134.6361201568,179514.83929334156,179495.19210996534,179300.53076750407,179437.32344357055,TASK2
2026-04-28T10:32:09.207+00:00,1043,74255,179260.96817981818,179494.05217099813,179057.32143608585,179113.78194257998,179494.25333669822,179474.33793238853,179279.6765899273,179416.46926599374,TASK2
2026-04-28T10:32:09.207+00:00,1043,74256,179263.38216821937,179496.19793846583,179059.73542448704,179115.9277100477,179496.39910416593,179476.48369985624,179282.09057832844,179418.88325439492,TASK2
2026-04-28T10:32:09.207+00:00,1043,74257,179283.9681248627,179516.85095034254,179080.9248782307,179136.1783905242,179516.85095034254,179497.47198789977,179303.48119777217,179439.06687963806,TASK2
2026-04-28T10:32:09.207+00:00,1043,74258,179302.47536927168,179535.626415685,179099.43212263967,179154.6856349332,179535.626415685,179516.24745324225,179321.98844218117,179457.57412404707,TASK2
2026-04-28T10:32:09.207+00:00,1043,74259,179293.15469183383,179526.30573824712,179090.37966613527,179145.6331784288,179526.30573824712,179506.92677580437,179312.6677647433,179448.52166754266,TASK2
2026-04-28T10:32:09.207+00:00,1043,74260,179271.49585145662,179504.64689786994,179068.4526048246,179123.9743380516,179504.64689786994,179484.99971449372,179291.27714529957,179426.594606232,TASK2
2026-04-28T10:32:09.207+00:00,1043,74261,179272.83695612394,179505.71978160378,179069.25726762498,179125.04722178547,179505.71978160378,179486.07259822756,179292.08180809996,179427.66748996585,TASK2
2026-04-28T10:32:09.207+00:00,1043,74262,179291.07597959947,179523.69058414586,179086.95984923362,179143.01802432752,179523.69058414586,179503.77517983617,179310.3208315755,179445.63829250794,TASK2
2026-04-28T10:32:09.207+00:00,1043,74263,179308.77856120808,179541.66138668792,179104.93065177568,179160.98882686958,179541.66138668792,179521.74598237826,179328.55985505102,179463.60909505,TASK2
2026-04-28T10:32:09.207+00:00,1043,74264,179299.45788377023,179532.60893018352,179095.34175340435,179151.39992849826,179532.34070925007,179512.42530494038,179318.9709566797,179454.28841761212,TASK2
2026-04-28T10:32:09.207+00:00,1043,74265,179282.62702019536,179516.04628754215,179078.779110763,179134.8372858569,179517.38739220946,179497.47198789977,179304.0176396391,179439.33510057154,TASK2
2026-04-28T10:32:09.207+00:00,1043,74266,179287.72321793117,179521.14248527796,179083.8753084988,179139.66526265923,179523.5564736791,179503.37284843597,179309.9185001753,179445.23596110774,TASK2
2026-04-28T10:32:09.207+00:00,1043,74267,179294.42874126777,179527.3115667476,179090.31261090192,179146.10256506235,179527.57978768108,179507.39616243794,179313.94181417726,179449.25927510968,TASK2
2026-04-28T10:32:09.207+00:00,1043,74268,179313.4724275437,179546.0870320901,179109.08807624437,179164.87803040483,179546.0870320901,179525.90340684692,179332.44905858627,179467.7665195187,TASK2
2026-04-28T10:32:09.207+00:00,1043,74269,179306.565738507,179539.44856398684,179102.44960814115,179158.2395623016,179539.44856398684,179519.2649387437,179325.81059048302,179461.12805141546,TASK2
2026-04-28T10:32:09.207+00:00,1043,74270,179287.05266559753,179519.93549107737,179082.93653523165,179138.45826845863,179519.6672701439,179499.75186583423,179306.02929664007,179441.61497850597,TASK2
2026-04-28T10:32:09.207+00:00,1043,74271,179289.4666539987,179522.34947947855,179085.35052363283,179141.1404777933,179522.34947947855,179502.70229610233,179308.71150597473,179444.2971878406,TASK2
2026-04-28T10:32:09.207+00:00,1043,74272,179306.63279374037,179539.5156192202,179102.24844244105,179158.30661753495,179539.7838401537,179519.868435844,179325.60942478292,179461.1951066488,TASK2
2026-04-28T10:32:09.207+00:00,1043,74273,179322.18960788127,179555.0724333611,179117.80525658195,179173.86343167585,179555.0724333611,179535.15702905142,179341.16623892382,179476.48369985624,TASK2
2026-04-28T10:32:09.207+00:00,1043,74274,179310.99138390916,179543.874209389,179106.60703260984,179162.66520770374,179544.14243032245,179523.9588050793,179330.23623588518,179465.5536968176,TASK2
2026-04-28T10:32:09.207+00:00,1043,74275,179287.72321793117,179520.8742643445,179083.60708756532,179139.9334835927,179521.4107062114,179500.95886003482,179307.23629084066,179442.55375177308,TASK2
2026-04-28T10:32:09.207+00:00,1043,74276,179291.21009006622,179524.3611364795,179086.8257387669,179143.15213479425,179524.62935741298,179503.90929030292,179310.45494204224,179445.77240297466,TASK2
2026-04-28T10:32:09.519+00:00,1044,74277,179314.27709034408,179547.15991582393,179109.89273904476,179165.95091413867,179547.4281367574,179526.9762905808,179333.25372138663,179468.57118231908,TASK2
2026-04-28T10:32:09.519+00:00,1044,74278,179338.95341622274,179572.30562833615,179135.64194865728,179191.2307371176,179571.76918646923,179552.7255001933,179358.19826819876,179493.98511576475,TASK2
2026-04-28T10:32:09.524+00:00,1044,74279,179334.99715745417,179568.61759050103,179131.95391082214,179187.27447834905,179568.08114863408,179549.0374623582,179354.24200943016,179490.29707792963,TASK2
2026-04-28T10:32:09.524+00:00,1044,74280,179317.09341014546,179550.44562225885,179114.05016351346,179169.37073104034,179550.9820641258,179531.93837784987,179337.14292492188,179473.19799342132,TASK2
2026-04-28T10:32:09.524+00:00,1044,74281,179315.8193607115,179548.635130958,179112.23967221257,179167.82846067293,179549.43979375836,179530.127886549,179335.332433621,179471.11928118698,TASK2
2026-04-28T10:32:09.524+00:00,1044,74282,179331.64439578587,179564.99660789926,179128.3329282204,179183.92171668075,179564.7283869658,179545.41647975642,179350.8892477619,179486.67609532786,TASK2
2026-04-28T10:32:09.524+00:00,1044,74283,179351.49274486216,179584.84495697558,179147.91305636324,179203.77006575704,179584.30851510866,179565.26482883273,179370.73759683818,179506.52444440417,TASK2
2026-04-28T10:32:09.524+00:00,1044,74284,179342.1720674243,179574.71961673733,179138.5923789254,179194.18116738572,179574.71961673733,179555.94415139485,179361.14869846686,179496.66732509938,TASK2
2026-04-28T10:32:09.524+00:00,1044,74285,179317.83101771248,179550.3785670255,179114.25132921356,179169.57189674044,179550.11034609203,179531.60310168302,179336.80764875503,179472.32627538758,TASK2
2026-04-28T10:32:09.524+00:00,1044,74286,179315.2158636112,179548.0316338577,179111.63617511227,179167.22496357263,179547.49519199075,179528.98794758177,179334.46071558722,179469.97934221974,TASK2
2026-04-28T10:32:09.524+00:00,1044,74287,179329.9680149517,179562.78378519817,179126.65654738623,179181.97711491314,179562.24734333126,179543.74009892228,179348.94464599426,179484.73149356025,TASK2
2026-04-28T10:32:09.524+00:00,1044,74288,179346.329491893,179579.41348307295,179143.01802432752,179198.60681278788,179578.877041206,179560.10157586355,179365.57434386903,179501.09297050154,TASK2
2026-04-28T10:32:09.524+00:00,1044,74289,179333.5219423201,179566.60593350005,179130.21047475463,179185.5310422815,179566.33771256657,179547.29402629065,179353.0350152296,179488.28542092865,TASK2
2026-04-28T10:32:09.524+00:00,1044,74290,179307.03512514057,179539.85089538703,179103.7236575751,179159.31244603544,179539.5826744536,179520.53898817766,179326.2799771166,179461.53038281566,TASK2
2026-04-28T10:32:09.524+00:00,1044,74291,179305.76107570663,179538.84506688654,179102.44960814115,179158.0383966015,179538.04040408618,179519.53315967717,179325.00592768262,179460.52455431517,TASK2
2026-04-28T10:32:09.524+00:00,1044,74292,179324.80476198252,179557.88875316246,179121.2250734836,179176.81386194396,179556.81586942862,179538.5768459531,179344.04961395854,179479.30001965762,TASK2
2026-04-28T10:32:09.524+00:00,1044,74293,179345.1895529258,179578.2735441057,179141.8780853603,179197.1986528872,179577.46888130534,179559.2298578298,179364.43440490178,179499.95303153433,TASK2
2026-04-28T10:32:09.524+00:00,1044,74294,179340.16041042333,179573.24440160327,179136.84894285788,179191.90128945129,179572.43973880287,179553.9324943939,179359.13704146587,179494.92388903187,TASK2
2026-04-28T10:32:09.524+00:00,1044,74295,179323.8659887154,179557.21820082882,179120.28630021648,179175.60686774337,179556.41353802843,179538.1745145529,179343.11084069143,179478.89768825742,TASK2
2026-04-28T10:32:09.524+00:00,1044,74296,179326.8164189835,179559.63218923,179122.9685095511,179178.55729801147,179559.09574736306,179540.85672388753,179345.79305002606,179481.57989759205,TASK2
2026-04-28T10:32:09.524+00:00,1044,74297,179349.61519832793,179582.4309685744,179145.76728889553,179201.3560773559,179581.89452670747,179563.38728229847,179368.59182937047,179504.11045600302,TASK2
2026-04-28T10:32:09.524+00:00,1044,74298,179371.60931487195,179604.6933060519,179168.02962637303,179223.61841483336,179604.15686418497,179585.64961977597,179390.85416684797,179526.10457254702,TASK2
2026-04-28T10:32:09.524+00:00,1044,74299,179363.62974210142,179596.71373328133,179160.05005360246,179215.63884206282,179596.1772914144,179577.93826793888,179382.8745940774,179518.39322070996,TASK2
2026-04-28T10:32:09.524+00:00,1044,74300,179341.70268079074,179574.78667197068,179138.3912132253,179193.71178075217,179574.25023010376,179556.01120662823,179360.94753276676,179496.46615939928,TASK2
2026-04-28T10:32:09.524+00:00,1044,74301,179342.50734359113,179575.59133477107,179139.19587602568,179194.2482226191,179574.78667197068,179556.54764849515,179361.75219556715,179497.27082219967,TASK2
2026-04-28T10:32:09.524+00:00,1044,74302,179356.72305306472,179589.80704424466,179153.14336456577,179208.46393209265,179589.00238144427,179570.76335796874,179375.96790504074,179511.2183107398,TASK2
2026-04-28T10:32:09.524+00:00,1044,74303,179374.82796607353,179608.0460677202,179171.51649850805,179226.83706603493,179607.64373632,179589.06943667762,179394.27398374962,179529.5243894487,TASK2
2026-04-28T10:32:09.524+00:00,1044,74304,179367.65305610336,179600.87115775002,179164.60980947135,179220.1985979317,179600.7370472833,179581.89452670747,179387.09907377948,179522.88592134547,TASK2
2026-04-28T10:32:09.524+00:00,1044,74305,179343.04378545808,179576.26188710475,179140.00053882605,179195.5893272864,179575.85955570455,179556.74881419525,179362.22158220073,179498.00842976672,TASK2
2026-04-28T10:32:09.524+00:00,1044,74306,179339.0875266895,179572.30562833615,179136.04428005748,179191.6330685178,179571.90329693595,179552.79255542665,179358.5335443656,179494.32039193157,TASK2
2026-04-28T10:32:09.524+00:00,1044,74307,179353.57145709652,179586.78955874318,179150.25998953104,179206.11699892484,179586.387227343,179567.00826490024,179373.01747477264,179508.53610140516,TASK2
2026-04-28T10:32:09.524+00:00,1044,74308,179369.12827123742,179602.3463728841,179165.81680367194,179221.67381306575,179601.67582055042,179582.56507904115,179388.30606798007,179523.8246946126,TASK2
2026-04-28T10:32:09.524+00:00,1044,74309,179359.27115193263,179592.4892535793,179155.95968436715,179211.81669376095,179591.81870124562,179572.70795973635,179378.44894867527,179514.23579624126,TASK2
2026-04-28T10:32:09.524+00:00,1044,74310,179342.1720674243,179575.39016907098,179138.5923789254,179194.4493883192,179576.3289423381,179557.48642176227,179362.69096883427,179498.47781640026,TASK2
2026-04-28T10:32:09.524+00:00,1044,74311,179345.3907186259,179578.34059933908,179141.5428091935,179197.3998185873,179579.81581447314,179561.24151483076,179366.44606190277,179501.96468853528,TASK2
2026-04-28T10:32:09.524+00:00,1044,74312,179353.4373466298,179586.387227343,179149.5894371974,179205.71466752468,179585.9848959428,179567.41059630044,179372.61514337244,179508.40199093844,TASK2
2026-04-28T10:32:09.524+00:00,1044,74313,179372.4810329057,179605.4309136189,179168.63312347332,179224.75835380057,179605.0285822187,179586.1860616429,179391.9270505818,179527.44567721436,TASK2
2026-04-28T10:32:09.524+00:00,1044,74314,179365.84256480247,179598.7924455157,179161.99465537007,179218.11988569735,179598.12189318202,179579.2793726062,179384.75214061167,179520.53898817766,TASK2
2026-04-28T10:32:09.524+00:00,1044,74315,179345.5248290926,179579.01115167275,179141.94514059369,179198.07037092093,179578.34059933908,179559.2298578298,179364.70262583526,179500.75769433472,TASK2
2026-04-28T10:32:09.524+00:00,1044,74316,179347.9388174938,179581.15691914046,179144.35912899484,179200.21613838867,179580.48636680678,179561.91206716443,179366.84839330296,179502.90346180243,TASK2
2026-04-28T10:32:09.524+00:00,1044,74317,179367.51894563664,179600.7370472833,179163.67103620424,179219.52804559804,179600.06649494963,179581.49219530728,179386.4285214458,179522.2153690118,TASK2
2026-04-28T10:32:09.524+00:00,1044,74318,179387.09907377948,179620.58539635962,179183.51938528055,179239.64461560783,179620.18306495942,179601.3405443836,179406.27687052212,179542.3319390216,TASK2
2026-04-28T10:32:09.524+00:00,1044,74319,179376.70551260776,179610.1918351879,179173.12582410884,179229.51927536956,179609.7895037877,179591.21520414535,179395.8833093504,179531.93837784987,TASK2
2026-04-28T10:32:09.524+00:00,1044,74320,179353.16912569632,179586.387227343,179149.5894371974,179205.98288845812,179585.9848959428,179567.41059630044,179372.34692243897,179508.40199093844,TASK2
2026-04-28T10:32:09.524+00:00,1044,74321,179361.21575370023,179594.4338553469,179157.6360652013,179213.76129552856,179594.0315239467,179575.45722430435,179380.39355044288,179516.44861894235,TASK2
2026-04-28T10:32:09.524+00:00,1044,74322,179381.60054464347,179615.0868672236,179177.75263521107,179233.87786553835,179614.1480939565,179595.5737943141,179400.77834138612,179536.5651889521,TASK2
2026-04-28T10:32:09.524+00:00,1044,74323,179397.15735878437,179630.37546043104,179193.30944935197,179249.43467967925,179629.97312903084,179611.13060845502,179416.06693459355,179552.122003093,TASK2
2026-04-28T10:32:09.524+00:00,1044,74324,179390.25066974768,179623.20055046087,179186.40276031528,179242.25976970908,179623.06643999415,179603.95569848488,179408.62380368993,179544.94709312284,TASK2
2026-04-28T10:32:09.524+00:00,1044,74325,179367.51894563664,179600.7370472833,179163.67103620424,179219.52804559804,179600.3347158831,179581.49219530728,179385.8920795789,179522.2153690118,TASK2
2026-04-28T10:32:09.524+00:00,1044,74326,179365.97667526922,179599.1947769159,179162.39698677027,179217.98577523063,179599.06066644916,179580.21814587334,179384.61803014495,179520.94131957786,TASK2
2026-04-28T10:32:09.524+00:00,1044,74327,179385.55680341207,179618.2384631918,179181.4406730462,179237.29768244002,179618.10435272506,179599.5300530827,179404.1981582878,179539.98500585378,TASK2
2026-04-28T10:32:09.524+00:00,1044,74328,179404.33226875452,179637.28214946773,179200.48435932212,179256.34136871592,179637.14803900098,179618.57373935863,179422.97362363024,179559.29691306315,TASK2
2026-04-28T10:32:09.524+00:00,1044,74329,179395.5480331836,179628.76613483025,179191.96834468466,179247.82535407846,179628.63202436353,179610.05772472115,179414.45760899276,179550.7808984257,TASK2
2026-04-28T10:32:09.524+00:00,1044,74330,179375.4314631738,179608.381343887,179171.85177467487,179227.64172883533,179608.1801781869,179589.06943667762,179394.60925991647,179530.3290522491,TASK2
2026-04-28T10:32:09.524+00:00,1044,74331,179375.2302974737,179608.1801781869,179171.85177467487,179227.44056313523,179607.97901248682,179588.86827097752,179394.1398732829,179529.8596656155,TASK2
2026-04-28T10:32:09.524+00:00,1044,74332,179394.5422046831,179627.76030632976,179191.16368188427,179246.7524703446,179627.55914062966,179608.4483991204,179413.72000142574,179549.43979375836,TASK2
2026-04-28T10:32:09.524+00:00,1044,74333,179416.8045421606,179650.02264380726,179213.42601936174,179269.0148078221,179649.82147810716,179630.4425156644,179436.25055983668,179571.97035216933,TASK2
2026-04-28T10:32:09.524+00:00,1044,74334,179410.43429499082,179643.65239663748,179206.78755125852,179262.64456065232,179643.45123093738,179624.07226849464,179429.88031266694,179565.86832593303,TASK2
2026-04-28T10:32:09.524+00:00,1044,74335,179389.31189648056,179622.52999812723,179185.66515274826,179241.2539412086,179622.06061149365,179602.6816490509,179408.4896932232,179544.20948555582,TASK2
2026-04-28T10:32:09.524+00:00,1044,74336,179386.4285214458,179619.91484402595,179182.51355678006,179238.1023452404,179618.90901552545,179599.79827401618,179405.338097255,179541.05788958762,TASK2
2026-04-28T10:32:09.524+00:00,1044,74337,179401.4488937198,179634.66699536645,179197.533929054,179253.12271751437,179633.92938779944,179614.5504253567,179420.35846952896,179555.81004092813,TASK2
2026-04-28T10:32:09.524+00:00,1044,74338,179419.68791719532,179652.90601884198,179216.04117346302,179271.62996192338,179652.70485314188,179633.05766976567,179438.5974930045,179574.31728533714,TASK2
2026-04-28T10:32:09.524+00:00,1044,74339,179413.0494490921,179646.53577167224,179209.67092629324,179264.99149382013,179646.06638503866,179626.68742259592,179432.22724583474,179567.94703816736,TASK2
2026-04-28T10:32:09.524+00:00,1044,74340,179403.46055072077,179636.67865236744,179200.08202792192,179255.13437451536,179638.89147506852,179619.51251262575,179425.32055679805,179560.77212819722,TASK2
2026-04-28T10:32:09.524+00:00,1044,74341,179413.11650432544,179646.33460597214,179210.0062024601,179264.79032812003,179649.62031240706,179630.50957089776,179436.31761507006,179571.50096553576,TASK2
2026-04-28T10:32:09.524+00:00,1044,74342,179410.23312929072,179643.71945187086,179207.12282742534,179261.9069530853,179643.51828617076,179624.139323728,179429.67914696684,179565.39893929946,TASK2
2026-04-28T10:32:09.524+00:00,1044,74343,179427.13104809893,179660.61737067907,179224.02074623355,179278.80487189352,179659.87976311205,179641.03724253623,179446.30884484158,179582.0286371742,TASK2
2026-04-28T10:32:09.524+00:00,1044,74344,179418.346812528,179651.83313510814,179214.96828972915,179269.7524153891,179651.0955275411,179631.98478603183,179437.25638833718,179572.9761806698,TASK2
2026-04-28T10:32:09.524+00:00,1044,74345,179396.15153028388,179629.63785286402,179192.77300748503,179247.557133145,179628.90024529697,179609.7895037877,179415.32932702653,179550.7808984257,TASK2
2026-04-28T10:32:09.524+00:00,1044,74346,179394.87748084991,179628.36380343005,179191.4989580511,179246.28308371105,179627.35797492956,179607.97901248682,179413.78705665912,179549.23862805826,TASK2
2026-04-28T10:32:09.524+00:00,1044,74347,179412.0436205916,179646.06638503866,179208.93331872622,179263.7174443862,179644.7923356047,179625.94981502887,179431.22141733425,179566.94120966687,TASK2
2026-04-28T10:32:09.524+00:00,1044,74348,179432.16019060137,179665.91473411498,179228.78166780254,179283.5657934625,179664.9089056145,179646.06638503866,179451.06976641057,179587.05777967666,TASK2
2026-04-28T10:32:09.524+00:00,1044,74349,179423.91239689736,179657.3987194775,179220.802095032,179275.58622069194,179656.66111191048,179637.55037040118,179443.09019364003,179578.80998597265,TASK2
2026-04-28T10:32:09.524+00:00,1044,74350,179401.18067278631,179634.66699536645,179198.07037092093,179252.8544965809,179633.66116686596,179614.81864629014,179420.35846952896,179556.0782618616,TASK2
2026-04-28T10:32:09.524+00:00,1044,74351,179399.37018148543,179632.85650406557,179195.9916586866,179251.04400528,179631.85067556507,179613.00815498925,179418.27975729463,179554.26777056072,TASK2
2026-04-28T10:32:09.861+00:00,1045,74352,179416.8045421606,179650.55908567418,179213.42601936174,179268.47836595518,179649.28503624024,179630.71073659786,179435.98233890324,179571.70213123586,TASK2
2026-04-28T10:32:09.861+00:00,1045,74353,179436.38467030344,179669.87099288357,179232.73792657114,179287.79027316454,179668.5969434496,179650.02264380726,179455.56246704608,179591.01403844525,TASK2
2026-04-28T10:32:09.861+00:00,1045,74354,179429.20976033327,179662.96430384688,179226.0994584679,179281.15180506132,179661.9584753464,179643.11595477056,179448.38755707594,179583.83912847508,TASK2
2026-04-28T10:32:09.861+00:00,1045,74355,179407.28269902262,179641.30546346967,179204.4406180907,179259.22474375067,179640.29963496918,179621.45711439336,179426.72871669874,179562.1802880979,TASK2
2026-04-28T10:32:09.861+00:00,1045,74356,179405.47220772173,179639.4949721688,179202.36190585638,179257.4142524498,179638.75736460177,179619.37840215903,179424.91822539785,179560.36979679702,TASK2
2026-04-28T10:32:09.861+00:00,1045,74357,179424.2476730642,179658.27043751127,179221.13737119883,179276.18971779224,179657.26460901077,179638.15386750147,179443.42546980685,179579.14526213947,TASK2
2026-04-28T10:32:09.861+00:00,1045,74358,179443.82780120705,179677.8505656541,179240.71749934167,179295.76984593508,179676.57651622014,179657.73399564432,179463.0055979497,179598.7253902823,TASK2
2026-04-28T10:32:09.861+00:00,1045,74359,179436.92111217036,179670.67565568394,179233.54258937153,179288.8631568984,179669.40160625,179650.82730660765,179456.098908913,179591.81870124562,TASK2
2026-04-28T10:32:09.861+00:00,1045,74360,179416.06693459355,179649.82147810716,179212.9566327282,179268.0089793216,179648.81564960667,179629.97312903084,179434.97651040275,179571.23274460228,TASK2
2026-04-28T10:32:09.861+00:00,1045,74361,179417.0057078607,179650.35791997408,179214.23068216213,179269.08186305547,179649.82147810716,179630.8448470646,179436.51878077016,179571.83624170258,TASK2
2026-04-28T10:32:09.861+00:00,1045,74362,179434.97651040275,179668.32872251613,179232.20148470422,179287.320886531,179668.0605015827,179648.81564960667,179454.22136237877,179590.0752651781,TASK2
2026-04-28T10:32:09.861+00:00,1045,74363,179454.82485947906,179687.908850659,179251.78161284706,179306.90101467384,179687.908850659,179668.66399868298,179473.8014905216,179609.92361425443,TASK2
2026-04-28T10:32:09.861+00:00,1045,74364,179447.11350764197,179679.92927788844,179244.07026100997,179298.92144190328,179680.19749882192,179660.68442591242,179466.358359618,179602.21226241734,TASK2
2026-04-28T10:32:09.861+00:00,1045,74365,179426.7957719321,179659.87976311205,179224.02074623355,179279.14014806034,179659.87976311205,179640.63491113603,179446.57706577505,179582.16274764095,TASK2
2026-04-28T10:32:09.861+00:00,1045,74366,179426.32638529854,179659.142155545,179223.28313866653,179278.13431955985,179659.142155545,179639.89730356899,179445.83945820804,179581.4251400739,TASK2
2026-04-28T10:32:09.861+00:00,1045,74367,179444.83362970754,179677.91762088749,179242.05860400898,179296.64156396885,179677.91762088749,179658.67276891146,179464.346702617,179600.20060541638,TASK2
2026-04-28T10:32:09.861+00:00,1045,74368,179465.21842065078,179698.03419089725,179262.17517401878,179316.7581339786,179698.30241183072,179678.78933892123,179484.73149356025,179620.31717542614,TASK2
2026-04-28T10:32:09.861+00:00,1045,74369,179458.31173161409,179690.8592809271,179255.26848498208,179309.58322400847,179691.12750186055,179671.88264988453,179477.82480452358,179613.142265456,TASK2
2026-04-28T10:32:09.861+00:00,1045,74370,179439.87154243846,179672.41909175148,179237.09651673993,179291.14303483284,179673.7601964188,179654.51534444277,179460.4574990818,179595.7749600142,TASK2
2026-04-28T10:32:09.861+00:00,1045,74371,179439.67037673836,179672.41909175148,179236.89535103983,179290.94186913274,179674.5648592192,179654.51534444277,179460.4574990818,179596.31140188116,TASK2
2026-04-28T10:32:09.861+00:00,1045,74372,179451.7403187442,179684.48903375733,179248.96529304568,179303.28003207207,179685.29369655772,179665.2441817813,179471.18633642033,179607.0402392197,TASK2
2026-04-28T10:32:09.861+00:00,1045,74373,179470.5157840867,179703.53272003325,179268.0089793216,179322.323718348,179703.80094096673,179684.28786805723,179490.23002269625,179626.08392549562,TASK2
2026-04-28T10:32:09.861+00:00,1045,74374,179463.07265318307,179695.82136819616,179260.2976274845,179314.34414557746,179696.08958912964,179676.57651622014,179482.78689179264,179618.37257365853,TASK2
2026-04-28T10:32:09.861+00:00,1045,74375,179440.60915000548,179673.3578650186,179238.1023452404,179292.14886333334,179673.89430688552,179654.11301304257,179460.59160954852,179595.90907048096,TASK2
2026-04-28T10:32:09.861+00:00,1045,74376,179438.53043777114,179671.0109318508,179235.75541207258,179290.070151099,179671.5473737177,179652.03430080824,179458.51289731418,179593.56213731316,TASK2
2026-04-28T10:32:09.861+00:00,1045,74377,179456.23301937975,179688.7135134594,179253.18977274775,179307.77273270758,179688.98173439284,179669.46866148338,179475.94725798932,179611.26471892174,TASK2
2026-04-28T10:32:09.861+00:00,1045,74378,179476.34958938952,179708.83008346916,179273.3063427575,179327.88930271738,179709.09830440264,179689.58523149314,179496.0638279991,179631.64950986498,TASK2
2026-04-28T10:32:09.861+00:00,1045,74379,179469.44290035282,179702.19161536594,179266.39965372081,179320.98261368068,179702.19161536594,179682.94676338992,179489.15713896242,179625.01104176175,TASK2
2026-04-28T10:32:09.861+00:00,1045,74380,179448.58872277604,179681.33743778913,179245.545476144,179300.12843610387,179681.33743778913,179662.0925858131,179468.3029613856,179603.62042231802,TASK2
2026-04-28T10:32:09.861+00:00,1045,74381,179448.38755707594,179681.33743778913,179245.34431044394,179299.92727040377,179680.8680511556,179661.891420113,179468.1017956855,179603.41925661793,TASK2
2026-04-28T10:32:09.861+00:00,1045,74382,179468.77234801918,179702.25867059932,179265.52793568707,179321.18377938078,179701.72222873237,179683.08087385664,179488.35247616202,179623.93815802792,TASK2
2026-04-28T10:32:09.861+00:00,1045,74383,179489.69358082933,179722.911682476,179286.44916849723,179342.10501219094,179722.64346154255,179703.73388573335,179509.27370897218,179644.85939083807,TASK2
2026-04-28T10:32:09.861+00:00,1045,74384,179482.25044992572,179715.46855157238,179279.2742585271,179334.66188128732,179715.46855157238,179696.29075482974,179501.83057806856,179637.14803900098,TASK2
2026-04-28T10:32:09.861+00:00,1045,74385,179473.19799342132,179706.41609506798,179270.2218020227,179325.60942478292,179709.09830440264,179689.92050765996,179494.92388903187,179630.77779183123,TASK2
2026-04-28T10:32:09.861+00:00,1045,74386,179479.367074891,179712.31695560418,179276.39088349233,179331.51028531912,179715.26738587228,179696.08958912964,179501.09297050154,179637.48331516783,TASK2
2026-04-28T10:32:09.861+00:00,1045,74387,179479.63529582444,179712.85339747113,179276.92732535928,179331.7785062526,179712.92045270448,179693.47443502836,179499.01425826718,179635.13638200003,TASK2
2026-04-28T10:32:09.861+00:00,1045,74388,179498.94720303384,179732.1653046805,179295.97101163518,179351.09041346196,179731.9641389804,179713.0545631712,179518.59438641006,179654.18006827595,TASK2
2026-04-28T10:32:09.861+00:00,1045,74389,179490.9676302633,179724.18573190997,179287.72321793117,179342.84261975798,179723.44812434292,179704.80676946722,179510.34659270605,179646.20049550539,TASK2
2026-04-28T10:32:09.861+00:00,1045,74390,179469.3087898861,179702.52689153276,179266.064377554,179321.18377938078,179702.32572583266,179683.4161500235,179488.68775232884,179624.5416551282,TASK2
2026-04-28T10:32:09.861+00:00,1045,74391,179467.7665195187,179701.25284209882,179264.52210718658,179319.9097299468,179700.78345546525,179681.87387965605,179487.14548196143,179622.9993847608,TASK2
2026-04-28T10:32:09.861+00:00,1045,74392,179484.93265926035,179718.68720277396,179281.68824692824,179337.0758696885,179717.94959520694,179699.04001939774,179504.3116217031,179640.16552450246,TASK2
2026-04-28T10:32:09.861+00:00,1045,74393,179502.90346180243,179736.658005316,179299.65904947033,179355.31489316403,179736.18861868247,179717.0108219398,179522.28242424518,179658.404547978,TASK2
2026-04-28T10:32:09.861+00:00,1045,74394,179493.3145634311,179726.80088601122,179290.070151099,179345.7259947927,179726.33149937767,179707.42192356847,179512.69352587385,179648.5474286732,TASK2
2026-04-28T10:32:09.861+00:00,1045,74395,179468.97351371928,179702.72805723286,179265.99732232062,179321.65316601435,179702.25867059932,179683.08087385664,179488.62069709547,179624.47459989483,TASK2
2026-04-28T10:32:09.861+00:00,1045,74396,179466.89480148492,179700.11290313158,179263.9186100863,179319.30623284655,179699.91173743148,179680.73394068883,179486.54198486113,179622.12766672703,TASK2
2026-04-28T10:32:09.861+00:00,1045,74397,179485.6702668274,179718.88836847406,179282.69407542874,179337.81347725552,179718.9554237074,179699.24118509784,179505.04922927014,179640.90313206948,TASK2
2026-04-28T10:32:09.861+00:00,1045,74398,179507.39616243794,179741.15070595153,179304.95641290623,179360.07581473302,179741.48598211838,179721.77174350878,179527.57978768108,179663.43369048042,TASK2
2026-04-28T10:32:09.861+00:00,1045,74399,179503.97634553627,179737.73088904988,179301.2683750711,179356.38777689787,179737.52972334978,179718.3519266071,179523.89174984596,179659.7456526453,TASK2
2026-04-28T10:32:09.861+00:00,1045,74400,179485.53615636064,179719.02247894078,179282.559964962,179337.94758772224,179718.82131324068,179699.64351649804,179505.18333973686,179641.03724253623,TASK2
2026-04-28T10:32:09.861+00:00,1045,74401,179484.53032786015,179718.28487137376,179281.822357395,179337.20998015522,179717.8154847402,179698.90590893102,179504.17751123637,179640.29963496918,TASK2
2026-04-28T10:32:09.861+00:00,1045,74402,179501.16002573492,179734.64634831503,179298.45205526974,179354.10789896344,179734.44518261493,179715.8038277392,179520.8072091111,179656.92933284395,TASK2
2026-04-28T10:32:09.861+00:00,1045,74403,179517.5215026762,179751.00782525633,179314.54531127756,179370.20115497126,179751.0748804897,179731.89708374703,179536.90046511893,179673.02258885177,TASK2
2026-04-28T10:32:09.861+00:00,1045,74404,179508.20082523834,179741.68714781848,179305.22463383968,179360.8804775334,179741.75420305182,179722.84462724265,179527.84800861456,179663.7019114139,TASK2
2026-04-28T10:32:09.861+00:00,1045,74405,179487.614868595,179721.3694121086,179285.17511906326,179340.56274182352,179721.7046882754,179702.79511246624,179507.79849383814,179643.38417570404,TASK2
2026-04-28T10:32:09.861+00:00,1045,74406,179488.15131046192,179721.9058539755,179285.44333999674,179340.56274182352,179721.97290920888,179702.79511246624,179507.79849383814,179643.65239663748,TASK2
2026-04-28T10:32:09.861+00:00,1045,74407,179510.74892410624,179744.10113621963,179307.43745654076,179362.69096883427,179744.03408098628,179724.92333947698,179530.4631627158,179665.98178934833,TASK2
2026-04-28T10:32:09.861+00:00,1045,74408,179533.54770345063,179766.63169463057,179330.23623588518,179385.4897481787,179766.83286033067,179747.7221188214,179553.26194206023,179688.78056869275,TASK2
2026-04-28T10:32:09.861+00:00,1045,74409,179529.05500281512,179762.13899399506,179325.74353524967,179380.99704754318,179762.0719387617,179742.9611972524,179548.50102049124,179684.01964712376,TASK2
2026-04-28T10:32:09.861+00:00,1045,74410,179512.22413924028,179745.03990948675,179308.64445074135,179364.16618396834,179744.9728542534,179725.59389181065,179531.6701569164,179666.92056261547,TASK2
2026-04-28T10:32:09.861+00:00,1045,74411,179512.7605811072,179745.5763513537,179309.18089260827,179364.70262583526,179745.7775170538,179726.13033367757,179532.20659878332,179667.4570044824,TASK2
2026-04-28T10:32:09.861+00:00,1045,74412,179528.04917431463,179761.13316549457,179324.20126488226,179379.99121904268,179760.79788932775,179741.68714781848,179547.49519199075,179682.47737675635,TASK2
2026-04-28T10:32:09.861+00:00,1045,74413,179543.0695465886,179776.15353776855,179338.95341622274,179394.7433703832,179775.81826160173,179756.70752009243,179562.24734333126,179697.76596996377,TASK2
2026-04-28T10:32:09.861+00:00,1045,74414,179531.60310168302,179764.41887192952,179327.75519225062,179383.2769254776,179764.35181669614,179744.9728542534,179550.7808984257,179686.03130412474,TASK2
2026-04-28T10:32:09.861+00:00,1045,74415,179509.94426130585,179742.76003155232,179306.09635187345,179361.88630603388,179743.49763911933,179724.38689761006,179530.19494178236,179665.17712654796,TASK2
2026-04-28T10:32:09.861+00:00,1045,74416,179502.76935133568,179735.3169006487,179298.92144190328,179354.44317513026,179736.8591710161,179717.48020857337,179523.28825274567,179658.27043751127,TASK2
2026-04-28T10:32:09.861+00:00,1045,74417,179514.30285147464,179746.85040078763,179310.18672110877,179365.97667526922,179747.3197874212,179727.94082497846,179533.74886915073,179668.46283298288,TASK2
2026-04-28T10:32:09.861+00:00,1045,74418,179538.1745145529,179770.72206386592,179334.05838418702,179389.84833834748,179771.19145049946,179751.81248805672,179557.35231129554,179692.33449606114,TASK2
2026-04-28T10:32:09.861+00:00,1045,74419,179528.04917431463,179760.3285026942,179323.6648230153,179379.72299810924,179760.52966839427,179741.418926885,179546.95875012383,179681.94093488943,TASK2
2026-04-28T10:32:09.861+00:00,1045,74420,179504.5127874032,179737.0603367162,179300.39665703734,179356.45483213125,179737.2615024163,179718.15076090704,179523.4223632124,179658.67276891146,TASK2
2026-04-28T10:32:09.861+00:00,1045,74421,179503.23873796925,179736.05450821572,179299.12260760338,179355.1807826973,179735.98745298237,179717.14493240655,179522.4165347119,179657.66694041097,TASK2
2026-04-28T10:32:09.861+00:00,1045,74422,179520.4048777109,179752.68420609046,179316.0205264116,179372.07870150552,179752.88537179056,179734.04285121473,179539.04623258664,179674.5648592192,TASK2
2026-04-28T10:32:09.861+00:00,1045,74423,179541.05788958762,179773.33721796717,179336.6735382883,179392.7317133822,179773.53838366727,179754.427642158,179559.69924446335,179695.21787109587,TASK2
2026-04-28T10:32:09.861+00:00,1045,74424,179533.88297961748,179766.16230799703,179329.7668492516,179385.55680341207,179766.36347369713,179747.78917405475,179552.79255542665,179688.04296112573,TASK2
2026-04-28T10:32:09.861+00:00,1045,74425,179513.83346484107,179746.3810141541,179309.7173344752,179366.04373050257,179746.85040078763,179727.73965927836,179532.74304065027,179668.2616672828,TASK2
2026-04-28T10:32:09.861+00:00,1045,74426,179514.63812764146,179747.45389788793,179310.79021820906,179366.84839330296,179747.65506358803,179728.54432207876,179533.2794825172,179669.06633008318,TASK2
2026-04-28T10:32:10.275+00:00,1046,74427,179535.8275813851,179768.91157256503,179332.24789288617,179388.0378470466,179768.84451733166,179750.00199675583,179555.00537812774,179690.2557838268,TASK2
2026-04-28T10:32:10.275+00:00,1046,74428,179558.08991886256,179791.1739100425,179354.24200943016,179410.56840545754,179791.3750757426,179772.26433423333,179577.53593653868,179712.78634223776,TASK2
2026-04-28T10:32:10.275+00:00,1046,74429,179551.1832298259,179783.99900007236,179347.3353203935,179403.3934954874,179784.4683867059,179765.08942426316,179570.36102656854,179705.34321133414,TASK2
2026-04-28T10:32:10.275+00:00,1046,74430,179528.18328478138,179760.99905502785,179324.60359628245,179380.39355044288,179761.73666259486,179742.35770015212,179547.6293024575,179682.87970815654,TASK2
2026-04-28T10:32:10.275+00:00,1046,74431,179523.15414227892,179756.23813345886,179319.57445378,179375.6326288739,179756.43929915896,179737.59677858313,179542.8683808885,179677.8505656541,TASK2
2026-04-28T10:32:10.275+00:00,1046,74432,179541.66138668792,179774.74537786786,179338.081698189,179394.1398732829,179774.67832263449,179755.83580205866,179561.3756252975,179696.3578100631,TASK2
2026-04-28T10:32:10.275+00:00,1046,74433,179563.65550323194,179796.4712734784,179360.34403566647,179416.4022107604,179797.20888104546,179777.82991860269,179583.36974184154,179718.3519266071,TASK2
2026-04-28T10:32:10.275+00:00,1046,74434,179558.55930549614,179791.5762414427,179355.3819483974,179410.5013502242,179791.71035190945,179772.39844470005,179578.20648887235,179713.59100503815,TASK2
2026-04-28T10:32:10.275+00:00,1046,74435,179534.2182557843,179766.96697079742,179330.7726777521,179386.16030051236,179767.10108126415,179748.05739498822,179553.86543916052,179689.24995532632,TASK2
2026-04-28T10:32:10.275+00:00,1046,74436,179529.45733421532,179761.93782829496,179325.74353524967,179381.1311580099,179762.34015969516,179743.29647341924,179548.8362966581,179684.48903375733,TASK2
2026-04-28T10:32:10.275+00:00,1046,74437,179546.35525302353,179778.83574710318,179342.64145405788,179398.02907681811,179779.50629943685,179760.73083409437,179566.00243639975,179701.38695256555,TASK2
2026-04-28T10:32:10.275+00:00,1046,74438,179565.39893929946,179798.14765431258,179361.68514033378,179417.07276309404,179798.81820664622,179780.04274130377,179585.04612267567,179720.43063884147,TASK2
2026-04-28T10:32:10.275+00:00,1046,74439,179556.882924662,179789.6316396751,179353.16912569632,179408.55674845658,179790.0339710753,179771.25850573284,179576.26188710475,179712.18284513746,TASK2
2026-04-28T10:32:10.275+00:00,1046,74440,179533.614758684,179766.09525276365,179329.90095971836,179385.2885824786,179766.76580509733,179747.7221188214,179552.7255001933,179688.37823729255,TASK2
2026-04-28T10:32:10.275+00:00,1046,74441,179531.2678255162,179764.01654052932,179327.55402655053,179382.9416493108,179764.41887192952,179745.3751856536,179550.64678795895,179686.29952505822,TASK2
2026-04-28T10:32:10.275+00:00,1046,74442,179548.9704071248,179782.25556400485,179345.79305002606,179401.18067278631,179782.38967447157,179763.61420912913,179568.88581143448,179704.53854853375,TASK2
2026-04-28T10:32:10.275+00:00,1046,74443,179570.15986086844,179803.44501774848,179366.9825037697,179422.37012652995,179803.84734914868,179784.80366287276,179590.0752651781,179725.72800227738,TASK2
2026-04-28T10:32:10.275+00:00,1046,74444,179564.86249743254,179797.8794333791,179361.68514033378,179417.07276309404,179798.54998571277,179778.9698575699,179584.7779017422,179720.162417908,TASK2
2026-04-28T10:32:10.275+00:00,1046,74445,179552.85961066003,179785.8765466066,179349.6822535613,179404.5334344546,179788.15642454106,179768.84451733166,179574.11611963704,179709.76885673628,TASK2
2026-04-28T10:32:10.275+00:00,1046,74446,179556.882924662,179789.89986060857,179353.97378849672,179408.55674845658,179792.9844013434,179773.94071506747,179579.21231737285,179714.8650544721,TASK2
2026-04-28T10:32:10.275+00:00,1046,74447,179562.24734333126,179795.26427927782,179359.06998623253,179413.92116712584,179795.66661067802,179776.6229244021,179581.626305774,179717.54726380674,TASK2
2026-04-28T10:32:10.275+00:00,1046,74448,179582.09569240757,179815.11262835414,179378.91833530884,179433.76951620216,179815.7831806878,179796.4712734784,179601.7428757838,179737.6638338165,TASK2
2026-04-28T10:32:10.275+00:00,1046,74449,179574.92078243743,179808.20593931744,179372.2798672056,179426.86282716546,179808.60827071764,179789.29636350827,179594.56796581362,179730.48892384637,TASK2
2026-04-28T10:32:10.275+00:00,1046,74450,179553.79838392715,179787.35176174066,179350.8892477619,179405.7404286552,179787.2176512739,179768.17396499802,179573.44556730337,179709.09830440264,TASK2
2026-04-28T10:32:10.275+00:00,1046,74451,179550.91500889242,179784.20016577246,179347.7376517937,179402.588832687,179784.33427623918,179765.29058996326,179570.56219226864,179705.94670843444,TASK2
2026-04-28T10:32:10.275+00:00,1046,74452,179569.42225330143,179802.439189248,179366.24489620267,179421.096077096,179802.8415206482,179783.5296134388,179589.06943667762,179724.18573190997,TASK2
2026-04-28T10:32:10.275+00:00,1046,74453,179590.0752651781,179823.0922011247,179386.89790807938,179441.7490889727,179823.4945325249,179804.1826253155,179609.72244855433,179745.10696472012,TASK2
2026-04-28T10:32:10.275+00:00,1046,74454,179582.36391334105,179815.6490702211,179379.72299810924,179434.30595806908,179816.05140162125,179796.7394944119,179602.2793176507,179737.93205474998,TASK2
2026-04-28T10:32:10.275+00:00,1046,74455,179559.63218923,179792.91734611,179356.99127399817,179411.57423395803,179793.05145657677,179773.73954936737,179579.54759353967,179714.93210970546,TASK2
2026-04-28T10:32:10.275+00:00,1046,74456,179555.94415139485,179788.69286640798,179353.0350152296,179407.61797518944,179789.36341874165,179769.78329059877,179575.59133477107,179710.97585093687,TASK2
2026-04-28T10:32:10.275+00:00,1046,74457,179573.91495393694,179806.9318898835,179371.00581777166,179425.58877773152,179807.3342212837,179788.0223140743,179593.8303582466,179728.94665347892,TASK2
2026-04-28T10:32:10.275+00:00,1046,74458,179594.56796581362,179827.58490176022,179391.65882964837,179446.51001054168,179828.25545409386,179808.9435468845,179614.48337012331,179749.59966535564,TASK2
2026-04-28T10:32:10.275+00:00,1046,74459,179589.2706023777,179822.55575925775,179386.36146621246,179441.48086803925,179822.95809065795,179803.91440438203,179609.1860066874,179744.83874378665,TASK2
2026-04-28T10:32:10.275+00:00,1046,74460,179569.48930853477,179802.7744654148,179366.31195143604,179421.43135326283,179802.90857588153,179784.1331105391,179589.40471284447,179724.78922901026,TASK2
2026-04-28T10:32:10.280+00:00,1046,74461,179566.60593350005,179799.8910903801,179363.42857640132,179418.5479782281,179800.0252008468,179780.98151457089,179586.25311687627,179721.9058539755,TASK2
2026-04-28T10:32:10.280+00:00,1046,74462,179586.45428257636,179819.47121852293,179383.2769254776,179438.12810637095,179819.87354992313,179800.56164271373,179605.8332450191,179741.48598211838,TASK2
2026-04-28T10:32:10.280+00:00,1046,74463,179609.25306192078,179842.26999786735,179406.07570482203,179460.6586647819,179842.67232926755,179823.36042205815,179628.63202436353,179764.28476146277,TASK2
2026-04-28T10:32:10.280+00:00,1046,74464,179603.95569848488,179837.2408553649,179401.0465623196,179455.62952227946,179837.37496583164,179818.3312795557,179623.60288186106,179759.25561896033,TASK2
2026-04-28T10:32:10.280+00:00,1046,74465,179585.91784070944,179818.86772142263,179382.3381522105,179437.85988543747,179819.1359423561,179800.15931131353,179605.6991345524,179741.15070595153,TASK2
2026-04-28T10:32:10.280+00:00,1046,74466,179583.83912847508,179816.7890091883,179380.25943997616,179436.0493941366,179817.05723012175,179798.0805990792,179603.62042231802,179739.34021465064,TASK2
2026-04-28T10:32:10.280+00:00,1046,74467,179601.00526821677,179834.22336986344,179397.6938006513,179453.48375481175,179834.22336986344,179815.2467388209,179620.51834112624,179756.50635439233,TASK2
2026-04-28T10:32:10.280+00:00,1046,74468,179620.85361729306,179854.07171893975,179417.5421497276,179473.33210388804,179854.07171893975,179835.36330883065,179640.63491113603,179776.35470346865,TASK2
2026-04-28T10:32:10.280+00:00,1046,74469,179615.2880329237,179848.2379136369,179411.70834442478,179467.4982985852,179848.2379136369,179829.52950352782,179635.06932676665,179770.25267723235,TASK2
2026-04-28T10:32:10.280+00:00,1046,74470,179593.89741347998,179826.84729419317,179390.5859459145,179446.10767914148,179827.11551512664,179808.40710501754,179613.67870732292,179749.1302787221,TASK2
2026-04-28T10:32:10.280+00:00,1046,74471,179590.74581751178,179823.96391915844,179387.4343499463,179442.95608317328,179823.96391915844,179805.25550904937,179610.52711135472,179745.9786827539,TASK2
2026-04-28T10:32:10.280+00:00,1046,74472,179607.37551538652,179840.86183796666,179404.06404782104,179459.8540019815,179840.59361703318,179821.61698599064,179627.15680922946,179762.8766015621,TASK2
2026-04-28T10:32:10.280+00:00,1046,74473,179626.95564352936,179860.17374517606,179423.6441759639,179479.1659091909,179860.17374517606,179841.46533506695,179646.73693737233,179782.18850877148,TASK2
2026-04-28T10:32:10.280+00:00,1046,74474,179620.0489544927,179852.9988352059,179416.73748692722,179471.99099922072,179853.5352770728,179834.2904250968,179639.2938064687,179775.01359880134,TASK2
2026-04-28T10:32:10.280+00:00,1046,74475,179611.5329398552,179844.75104150188,179408.4896932232,179463.47498458327,179847.70147176998,179828.72484072743,179633.72822209934,179769.44801443195,TASK2
2026-04-28T10:32:10.280+00:00,1046,74476,179624.139323728,179857.0892044412,179420.82785616253,179476.34958938952,179862.185402177,179842.940550201,179647.9439315729,179783.931944839,TASK2
2026-04-28T10:32:10.280+00:00,1046,74477,179616.6961928244,179849.91429447106,179413.38472525892,179469.17467941938,179850.71895727146,179831.47410529543,179637.01392853426,179772.73372086688,TASK2
2026-04-28T10:32:10.280+00:00,1046,74478,179633.5941116326,179866.81221327928,179430.28264406713,179486.07259822756,179867.3486551462,179848.10380317018,179653.37540547556,179789.36341874165,TASK2
2026-04-28T10:32:10.280+00:00,1046,74479,179625.3463179286,179858.56441957527,179421.76662942965,179477.5565835901,179859.1008614422,179839.85600946617,179644.5911699046,179780.84740410416,TASK2
2026-04-28T10:32:10.280+00:00,1046,74480,179602.61459381753,179836.36913733114,179399.57134718553,179455.36130134598,179836.63735826462,179817.12428535512,179622.12766672703,179758.38390092656,TASK2
2026-04-28T10:32:10.280+00:00,1046,74481,179599.1947769159,179832.68109949603,179395.8833093504,179451.67326351086,179832.68109949603,179813.43624752,179618.70784982535,179754.69586309145,TASK2
2026-04-28T10:32:10.280+00:00,1046,74482,179616.36091665755,179849.57901830424,179413.0494490921,179468.57118231908,179849.8472392377,179830.33416632822,179635.87398956704,179771.86200283314,TASK2
2026-04-28T10:32:10.280+00:00,1046,74483,179637.55037040118,179870.76847204787,179433.97068190225,179489.7606360627,179871.3049139148,179851.52362007185,179657.33166424415,179793.3196775102,TASK2
2026-04-28T10:32:10.280+00:00,1046,74484,179631.71656509835,179864.66644581157,179427.86865566595,179483.6586098264,179865.2028876785,179845.15337290207,179650.96141707437,179786.94943034046,TASK2
2026-04-28T10:32:10.280+00:00,1046,74485,179610.05772472115,179843.00760543437,179406.47803622222,179461.9997694492,179843.5440473013,179823.4945325249,179629.30257669717,179765.29058996326,TASK2
2026-04-28T10:32:10.280+00:00,1046,74486,179607.71079155334,179840.86183796666,179404.33226875452,179459.71989151477,179840.99594843338,179821.95226215746,179627.15680922946,179763.07776726218,TASK2
2026-04-28T10:32:10.280+00:00,1046,74487,179626.48625689582,179859.90552424258,179423.10773409696,179478.7635777907,179860.0396347093,179840.45950656646,179646.20049550539,179782.1214535381,TASK2
2026-04-28T10:32:10.280+00:00,1046,74488,179647.9439315729,179881.63141985313,179444.83362970754,179500.22125246777,179881.4973093864,179862.185402177,179667.6581701825,179803.5791282152,TASK2
2026-04-28T10:32:10.280+00:00,1046,74489,179641.8419053366,179875.2611726834,179438.46338253777,179493.85100529803,179875.12706221663,179855.81515500727,179661.28792301271,179797.20888104546,TASK2
2026-04-28T10:32:10.280+00:00,1046,74490,179627.6932510964,179861.11251844317,179424.58294923103,179479.70235105781,179863.12417544416,179843.5440473013,179649.28503624024,179784.93777333948,TASK2
2026-04-28T10:32:10.280+00:00,1046,74491,179626.95564352936,179860.37491087615,179423.57712073054,179478.9647434908,179862.65478881059,179842.80643973427,179648.81564960667,179784.20016577246,TASK2
2026-04-28T10:32:10.280+00:00,1046,74492,179636.07515526714,179869.4944226139,179432.42841153484,179488.08425522855,179869.8967540141,179850.04840493778,179655.7893938767,179791.1739100425,TASK2
2026-04-28T10:32:10.280+00:00,1046,74493,179656.9963880773,179890.14743449062,179453.08142341155,179509.00548803873,179890.5497658908,179870.7014168145,179676.7106266869,179811.82692191922,TASK2
2026-04-28T10:32:10.280+00:00,1046,74494,179649.82147810716,179882.97252452045,179445.63829250794,179501.83057806856,179883.1066349872,179863.7947277778,179669.53571671672,179804.65201194907,TASK2
2026-04-28T10:32:10.280+00:00,1046,74495,179628.43085866343,179861.8501260102,179424.51589399765,179480.43995862483,179861.9842364769,179842.40410833407,179648.145097273,179783.26139250534,TASK2
2026-04-28T10:32:10.280+00:00,1046,74496,179624.47459989483,179857.8938672416,179420.82785616253,179476.7519207897,179858.02797770835,179838.71607049895,179644.18883850443,179779.30513373675,TASK2
2026-04-28T10:32:10.280+00:00,1046,74497,179642.4454024369,179875.5964488502,179438.53043777114,179494.72272333177,179875.9987802504,179856.41865210756,179661.891420113,179797.2759362788,TASK2
2026-04-28T10:32:10.280+00:00,1046,74498,179663.36663524708,179896.78590259384,179459.4516705813,179515.64395614195,179896.65179212712,179877.33988491772,179682.8126529232,179818.197169089,TASK2
2026-04-28T10:32:10.280+00:00,1046,74499,179656.72816714385,179889.6109926237,179452.5449815446,179508.46904617178,179889.74510309042,179870.43319588102,179675.9059638865,179811.55870098574,TASK2
2026-04-28T10:32:10.280+00:00,1046,74500,179636.14221050052,179868.7568150469,179431.95902490127,179487.88308952845,179868.8909255136,179849.57901830424,179655.0517863097,179790.9727443424,TASK2
2026-04-28T10:32:10.280+00:00,1046,74501,179632.72239359884,179865.6052190787,179428.27098706615,179484.4632726268,179865.7393295454,179846.15920140257,179651.36374847457,179787.55292744076,TASK2
2026-04-28T10:32:10.582+00:00,1047,74502,179649.8885333405,179882.77135882035,179445.43712680784,179501.89763330194,179882.9054692871,179863.32534114426,179668.52988821623,179804.45084624898,TASK2
2026-04-28T10:32:10.582+00:00,1047,74503,179671.3462080176,179903.96081256398,179466.89480148492,179522.8188661121,179904.36314396418,179884.78301582133,179689.98756289334,179825.6402999926,TASK2
2026-04-28T10:32:10.582+00:00,1047,74504,179665.78062364823,179898.66344912807,179461.597438049,179517.25328174274,179898.79755959482,179879.21743145198,179684.69019945743,179820.3429365567,TASK2
2026-04-28T10:32:10.582+00:00,1047,74505,179645.46288793837,179878.3457134182,179441.27970233915,179497.20376696633,179878.47982388493,179858.63147480862,179664.37246374757,179800.0252008468,TASK2
2026-04-28T10:32:10.582+00:00,1047,74506,179640.97018730285,179873.8530127827,179436.51878077016,179492.44284539734,179874.2553441829,179854.40699510658,179660.1479840455,179795.5325002113,TASK2
2026-04-28T10:32:10.582+00:00,1047,74507,179658.9409898449,179891.82381532475,179454.4895833122,179510.14542700595,179892.22614672495,179872.37779764863,179677.8505656541,179813.50330275335,TASK2
2026-04-28T10:32:10.582+00:00,1047,74508,179679.59400172162,179912.47682720146,179475.14259518893,179530.53021794918,179912.87915860166,179892.76258859187,179698.23535659735,179833.88809369662,TASK2
2026-04-28T10:32:10.582+00:00,1047,74509,179672.150870818,179905.03369629785,179467.6994642853,179523.355307979,179905.7042486315,179885.58767862173,179691.32866756065,179826.71318372645,TASK2
2026-04-28T10:32:10.582+00:00,1047,74510,179650.22380950736,179882.83841405372,179445.5041820412,179501.16002573492,179883.24074545392,179863.3923963776,179668.86516438308,179804.24968054888,TASK2
2026-04-28T10:32:10.582+00:00,1047,74511,179646.53577167224,179879.5527076188,179442.82197270656,179498.27665070017,179879.88798378562,179860.91135274307,179665.91473411498,179801.16513981402,TASK2
2026-04-28T10:32:10.582+00:00,1047,74512,179663.43369048042,179896.45062642702,179459.98811244822,179515.44279044186,179896.78590259384,179878.07749248474,179683.08087385664,179818.3312795557,TASK2
2026-04-28T10:32:10.582+00:00,1047,74513,179684.08670235713,179916.83541737025,179480.3729033915,179535.8275813851,179917.17069353707,179898.46228342797,179703.46566479988,179839.25251236587,TASK2
2026-04-28T10:32:10.582+00:00,1047,74514,179676.64357145352,179909.92872833356,179472.92977248784,179528.38445048148,179909.72756263346,179891.01915252436,179696.02253389626,179832.07760239573,TASK2
2026-04-28T10:32:10.582+00:00,1047,74515,179655.52117294326,179888.8063298233,179452.07559491106,179507.2620519712,179888.6051641232,179870.16497494758,179674.900135386,179810.686982952,TASK2
2026-04-28T10:32:10.582+00:00,1047,74516,179651.2966932412,179884.58185012123,179447.58289427555,179503.03757226915,179884.38068442114,179865.9404952455,179670.67565568394,179806.7307241834,TASK2
2026-04-28T10:32:10.582+00:00,1047,74517,179668.73105391633,179902.01621079637,179465.01725495068,179520.4719329443,179901.81504509627,179883.1066349872,179687.84179542563,179824.43330579202,TASK2
2026-04-28T10:32:10.582+00:00,1047,74518,179689.92050765996,179923.20566454,179486.2067086943,179541.9296076214,179923.0044988399,179904.56430966427,179709.29947010273,179845.62275953565,TASK2
2026-04-28T10:32:10.582+00:00,1047,74519,179684.08670235713,179917.64008017065,179480.3729033915,179536.09580231854,179917.17069353707,179898.73050436145,179703.73388573335,179839.7889542328,TASK2
2026-04-28T10:32:10.582+00:00,1047,74520,179676.37535052004,179909.92872833356,179472.6615515544,179528.116229548,179912.14155103464,179893.43314092554,179698.43652229744,179835.02803266383,TASK2
2026-04-28T10:32:10.582+00:00,1047,74521,179684.1537575905,179917.97535633747,179480.7081795583,179536.1628575519,179920.99284183895,179902.55265266332,179707.28781310175,179843.61110253466,TASK2
2026-04-28T10:32:10.582+00:00,1047,74522,179682.07504535615,179915.89664410314,179478.3612463905,179533.8159243841,179915.1590365361,179896.71884736046,179701.45400779892,179838.04551816528,TASK2
2026-04-28T10:32:10.582+00:00,1047,74523,179702.99627816633,179937.08609784677,179499.55070013413,179554.73715719426,179936.08026934628,179917.64008017065,179722.37524060908,179858.96675097547,TASK2
2026-04-28T10:32:10.582+00:00,1047,74524,179697.69891473043,179931.78873441086,179494.25333669822,179549.43979375836,179930.78290591037,179912.61093766819,179717.07787717317,179853.40116660608,TASK2
2026-04-28T10:32:10.582+00:00,1047,74525,179675.77185341978,179909.86167310018,179472.32627538758,179527.78095338118,179909.12406553316,179890.952097291,179695.15081586252,179831.47410529543,TASK2
2026-04-28T10:32:10.582+00:00,1047,74526,179669.66982718348,179903.49142593044,179466.22424915127,179521.67892714488,179903.02203929686,179884.3136291878,179689.04878962622,179825.37207905913,TASK2
2026-04-28T10:32:10.582+00:00,1047,74527,179685.22664132435,179918.78001913786,179481.78106329215,179537.23574128578,179918.57885343776,179899.87044332866,179704.60560376712,179841.19711413348,TASK2
2026-04-28T10:32:10.582+00:00,1047,74528,179704.80676946722,179938.3601472807,179501.36119143502,179556.81586942862,179938.1589815806,179919.71879240498,179724.4539528434,179860.77724227632,TASK2
2026-04-28T10:32:10.582+00:00,1047,74529,179697.90008043053,179931.72167917748,179494.18628146485,179550.1774013254,179931.2522925439,179912.81210336828,179717.54726380674,179853.87055323966,TASK2
2026-04-28T10:32:10.582+00:00,1047,74530,179675.7047981864,179909.79461786684,179472.2592201542,179528.25034001473,179909.0570102998,179890.61682112416,179695.35198156262,179831.67527099553,TASK2
2026-04-28T10:32:10.582+00:00,1047,74531,179672.01676035128,179906.1065800317,179468.83940325252,179524.5623021796,179905.36897246467,179887.19700422251,179691.93216466095,179827.9872331604,TASK2
2026-04-28T10:32:10.582+00:00,1047,74532,179690.79222569373,179924.6138244407,179487.34664766153,179543.33776752208,179923.87621687367,179905.97246956496,179710.7076300034,179846.4944775694,TASK2
2026-04-28T10:32:10.582+00:00,1047,74533,179713.8592259716,179947.4126037851,179510.14542700595,179566.13654686647,179946.94321715154,179929.03946984286,179733.7746302813,179869.56147784728,TASK2
2026-04-28T10:32:10.582+00:00,1047,74534,179707.48897880185,179941.3105775488,179504.04340076965,179560.30274156365,179940.84119091523,179922.66922267308,179727.4043831115,179863.72767254442,TASK2
2026-04-28T10:32:10.582+00:00,1047,74535,179682.34326628962,179916.16486503658,179479.1659091909,179535.4252499849,179915.69547840304,179897.52351016086,179702.25867059932,179838.31373909875,TASK2
2026-04-28T10:32:10.582+00:00,1047,74536,179673.29080978522,179906.84418759873,179469.84523175302,179525.83635161357,179906.37480096516,179888.47105365645,179693.2062140949,179828.9930616609,TASK2
2026-04-28T10:32:10.582+00:00,1047,74537,179688.3111820592,179921.8645598727,179484.865604027,179540.85672388753,179921.12695230567,179903.22320499696,179708.22658636887,179844.01343393486,TASK2
2026-04-28T10:32:10.582+00:00,1047,74538,179711.24407187034,179944.39511828363,179507.39616243794,179562.98495089827,179943.9257316501,179925.41848724108,179730.69008954646,179866.47693711243,TASK2
2026-04-28T10:32:10.582+00:00,1047,74539,179706.48315030136,179939.63419671467,179502.63524086896,179558.2240293293,179939.1648100811,179920.6575656721,179725.92916797748,179861.71601554347,TASK2
2026-04-28T10:32:10.582+00:00,1047,74540,179687.77474019225,179920.92578660557,179483.92683075985,179539.5156192202,179920.456399972,179901.68093462955,179707.22075786837,179843.00760543437,TASK2
2026-04-28T10:32:10.582+00:00,1047,74541,179687.03713262524,179920.18817903855,179483.18922319284,179538.50979071972,179919.71879240498,179900.94332706253,179706.75137123483,179842.26999786735,TASK2
2026-04-28T10:32:10.582+00:00,1047,74542,179708.7630282358,179941.9140746491,179505.18333973686,179560.23568633027,179941.44468801553,179922.66922267308,179728.2090459119,179864.26411441137,TASK2
2026-04-28T10:32:10.582+00:00,1047,74543,179735.04867971523,179968.19972612854,179531.20077028283,179586.5213378097,179967.73033949497,179949.223095086,179754.49469739135,179890.5497658908,TASK2
2026-04-28T10:32:10.582+00:00,1047,74544,179732.9699674809,179966.1210138942,179529.39027898197,179584.71084650885,179965.9198481941,179947.4126037851,179752.41598515701,179888.73927458993,TASK2
2026-04-28T10:32:10.582+00:00,1047,74545,179715.0662201722,179947.94904565203,179511.2183107398,179566.53887826667,179948.0161008854,179929.24063554296,179734.5122378483,179870.2990854143,TASK2
2026-04-28T10:32:10.582+00:00,1047,74546,179713.79217073825,179946.94321715154,179509.67604037237,179565.26482883273,179946.473830518,179927.966586109,179732.9699674809,179868.7568150469,TASK2
2026-04-28T10:32:10.582+00:00,1047,74547,179733.3722988811,179966.25512436093,179529.25616851522,179585.11317790905,179966.05395866084,179947.54671425183,179752.8183165572,179888.6051641232,TASK2
2026-04-28T10:32:10.582+00:00,1047,74548,179755.36641542512,179988.5174618384,179551.51850599272,179607.10729445308,179988.3162961383,179969.54083079586,179775.08065403468,179911.13572253415,TASK2
2026-04-28T10:32:10.582+00:00,1047,74549,179749.26438918881,179982.4154356021,179545.14825882294,179601.00526821677,179981.94604896856,179963.43880455956,179768.97862779838,179904.49725443093,TASK2
2026-04-28T10:32:10.582+00:00,1047,74550,179728.14199067856,179961.29303709185,179524.29408124616,179579.61464877304,179962.16475512562,179943.38928978314,179748.929113022,179884.4477396545,TASK2
2026-04-28T10:32:10.582+00:00,1047,74551,179719.08953417416,179952.24058058744,179515.24162474176,179570.56219226864,179953.38051955466,179934.33683327876,179739.8766565176,179875.66350408358,TASK2
2026-04-28T10:32:10.582+00:00,1047,74552,179722.57640630918,179955.45923178902,179518.4602759433,179573.51262253674,179954.98984515545,179935.94615887952,179741.48598211838,179877.27282968434,TASK2
2026-04-28T10:32:10.582+00:00,1047,74553,179736.25567391582,179969.13849939566,179532.13954354997,179587.19189014338,179968.66911276212,179949.6254264862,179755.16524972502,179890.68387635754,TASK2
2026-04-28T10:32:10.582+00:00,1047,74554,179731.22653141338,179964.10935689323,179527.1104010475,179582.16274764095,179963.63997025965,179944.59628398373,179750.40432815603,179886.19117572202,TASK2
2026-04-28T10:32:10.582+00:00,1047,74555,179712.78634223776,179945.93738865104,179508.93843280536,179563.72255846532,179945.4680020175,179926.42431574158,179732.23235991388,179867.7509865464,TASK2
2026-04-28T10:32:10.582+00:00,1047,74556,179709.09830440264,179942.24935081592,179505.25039497024,179560.03452063017,179941.77996418238,179923.0044988399,179728.54432207876,179864.33116964472,TASK2
2026-04-28T10:32:10.582+00:00,1047,74557,179728.67843254548,179961.82947895877,179524.83052311308,179579.61464877304,179961.36009232522,179942.58462698277,179748.1244502216,179883.9112977876,TASK2
2026-04-28T10:32:10.582+00:00,1047,74558,179750.94077002295,179984.36003736974,179546.8246396571,179601.8769862505,179983.89065073617,179965.11518539372,179770.38678769907,179906.17363526506,TASK2
2026-04-28T10:32:10.582+00:00,1047,74559,179745.3751856536,179979.06267393383,179541.5272762212,179596.5796228146,179978.3250663668,179959.54960102434,179764.82120332972,179900.60805089568,TASK2
2026-04-28T10:32:10.582+00:00,1047,74560,179726.39855461102,179959.8178219578,179522.55064517865,179577.33477083858,179959.08021439076,179940.84119091523,179745.84457228714,179881.3631989197,TASK2
2026-04-28T10:32:10.582+00:00,1047,74561,179722.17407490898,179955.3251213223,179518.0579445431,179573.11029113655,179954.85573468872,179936.34849027972,179741.6200925851,179876.87049828414,TASK2
2026-04-28T10:32:10.582+00:00,1047,74562,179738.2673309168,179971.15015639664,179533.88297961748,179588.9353262109,179970.94899069655,179952.1735253541,179757.71334859292,179892.69553335852,TASK2
2026-04-28T10:32:10.582+00:00,1047,74563,179758.11567999312,179991.2667264064,179553.99954962725,179609.05189622068,179991.0655607063,179972.29009536386,179777.82991860269,179912.81210336828,TASK2
2026-04-28T10:32:10.582+00:00,1047,74564,179753.35475842413,179986.23758390397,179548.9704071248,179604.2909746517,179985.7681972704,179967.52917379487,179772.80077610025,179907.78296086585,TASK2
2026-04-28T10:32:10.582+00:00,1047,74565,179734.1099064481,179966.99273192795,179529.7255551488,179585.04612267567,179966.25512436093,179948.0161008854,179753.55592412423,179888.53810888983,TASK2
2026-04-28T10:32:10.582+00:00,1047,74566,179727.4714383449,179960.6224847582,179523.355307979,179578.40765457245,179959.88487719116,179941.1094118487,179746.917456021,179881.8996407866,TASK2
2026-04-28T10:32:10.582+00:00,1047,74567,179744.90579902002,179977.78862449987,179540.5214477207,179595.5737943141,179977.05101693285,179958.54377252384,179764.08359576267,179899.06578052827,TASK2
2026-04-28T10:32:10.582+00:00,1047,74568,179766.36347369713,179999.24629917697,179561.9791223978,179617.03146899122,179998.50869160992,179980.00144720095,179785.54127043977,179920.2552342719,TASK2
2026-04-28T10:32:10.582+00:00,1047,74569,179760.79788932775,179993.94893574106,179556.882924662,179612.47171312233,179993.74777004097,179974.7711389984,179780.10979653714,179915.76253363639,TASK2
2026-04-28T10:32:10.582+00:00,1047,74570,179739.40726988402,179972.55831629733,179535.76052615172,179591.0810936786,179972.35715059724,179953.1122986212,179758.71917709342,179894.37191419266,TASK2
2026-04-28T10:32:10.582+00:00,1047,74571,179733.5734645812,179966.99273192795,179529.9267208489,179585.24728837577,179966.52334529438,179947.54671425183,179753.15359272403,179888.53810888983,TASK2
2026-04-28T10:32:10.582+00:00,1047,74572,179749.1302787221,179982.28132513538,179545.21531405632,179600.5358815832,179982.08015943528,179962.83530745926,179768.44218593146,179903.82670209726,TASK2
2026-04-28T10:32:10.582+00:00,1047,74573,179769.78329059877,180003.20255794557,179565.60010499955,179621.1888934599,180002.733171312,179983.48831933597,179789.09519780817,179924.7479349074,TASK2
2026-04-28T10:32:10.582+00:00,1047,74574,179764.21770622942,179997.63697357618,179560.03452063017,179615.62330909053,179997.1675869426,179978.19095590006,179783.5296134388,179919.18235053806,TASK2
2026-04-28T10:32:10.582+00:00,1047,74575,179743.6317495861,179977.05101693285,179539.44856398684,179595.30557338067,179976.58163029928,179957.33677832325,179762.675435862,179898.32817296125,TASK2
2026-04-28T10:32:10.582+00:00,1047,74576,179739.13904895057,179972.29009536386,179535.2240842848,179591.0810936786,179972.08892966376,179952.84407768774,179758.18273522647,179894.1036932592,TASK2
2026-04-28T10:32:10.582+00:00,1047,74577,179757.64629335955,179990.79733977286,179553.46310776033,179609.32011715413,179990.05973220585,179971.08310116327,179776.68997963547,179912.34271673474,TASK2
2026-04-28T10:32:10.582+00:00,1047,74578,179779.64040990357,180012.7914563169,179575.18900337088,179631.31423369815,180012.32206968332,179993.0772177073,179798.6840961795,179934.0686123453,TASK2
2026-04-28T10:32:10.582+00:00,1047,74579,179774.61126740114,180007.49409288098,179569.89163993497,179626.28509119572,180007.29292718088,179988.04807520486,179793.3867327436,179929.03946984286,TASK2
2026-04-28T10:32:10.582+00:00,1047,74580,179763.94948529595,179997.10053170926,179559.49807876325,179615.891530024,179998.7769125434,179979.80028150085,179785.13893903958,179920.79167613885,TASK2
2026-04-28T10:32:10.582+00:00,1047,74581,179770.11856676562,180003.5378341124,179565.66716023293,179622.06061149365,180006.2870986804,179987.31046763784,179792.3809042431,179928.3018622758,TASK2
2026-04-28T10:32:10.582+00:00,1047,74582,179770.65500863254,180004.0742759793,179566.20360209985,179622.5970533606,180003.6719445791,179984.69531353656,179789.7657501418,179925.68670817456,TASK2
2026-04-28T10:32:10.582+00:00,1047,74583,179788.6258111746,180022.31329945484,179584.44262557538,179641.10429776958,180021.6427471212,180002.66611607862,179808.00477361734,179943.6575107166,TASK2
2026-04-28T10:32:10.582+00:00,1047,74584,179783.3284477387,180017.01593601893,179579.14526213947,179635.80693433367,180016.3453836853,179997.3687526427,179802.439189248,179938.3601472807,TASK2
2026-04-28T10:32:10.582+00:00,1047,74585,179762.4742701619,179996.4299793756,179558.55930549614,179615.22097769033,179995.75942704192,179976.78279599937,179781.85323260466,179918.04241157084,TASK2
2026-04-28T10:32:10.582+00:00,1047,74586,179757.71334859292,179991.6690578066,179553.79838392715,179610.1918351879,179990.7302845395,179972.0218744304,179777.09231103567,179913.28149000186,TASK2
2026-04-28T10:32:10.582+00:00,1047,74587,179773.27016273382,180007.49409288098,179569.89163993497,179626.28509119572,180006.2870986804,179987.5786885713,179792.91734611,179928.83830414276,TASK2
2026-04-28T10:32:10.582+00:00,1047,74588,179793.3867327436,180028.14710475766,179590.2764308782,179646.66988213896,180026.67188962363,180007.96347951452,179813.0339161198,179949.223095086,TASK2
2026-04-28T10:32:10.582+00:00,1047,74589,179787.55292744076,180022.04507852136,179584.44262557538,179640.29963496918,180020.8380843208,180002.1296742117,179806.9318898835,179943.38928978314,TASK2
2026-04-28T10:32:10.582+00:00,1047,74590,179768.10690976464,180001.45912187803,179564.59427649906,179619.8477887926,180001.59323234478,179982.48249083548,179787.55292744076,179923.33977500675,TASK2
2026-04-28T10:32:10.582+00:00,1047,74591,179761.73666259486,179995.35709564175,179558.2240293293,179613.7457625563,179995.222985175,179976.11224366573,179781.45090120446,179917.23774877045,TASK2
2026-04-28T10:32:10.582+00:00,1047,74592,179779.9756860704,180013.59611911728,179576.46305280484,179631.98478603183,180013.46200865053,179994.6194880747,179799.4217037465,179935.47677224598,TASK2
2026-04-28T10:32:10.582+00:00,1047,74593,179802.2380235479,180035.59023566128,179598.45716934887,179653.97890257585,180035.45612519456,180016.61360461873,179821.41582029054,179957.47088879,TASK2
2026-04-28T10:32:10.582+00:00,1047,74594,179799.0864275797,180032.17041875963,179595.30557338067,179650.82730660765,180032.57275015983,180013.46200865053,179818.26422432234,179954.3192928218,TASK2
2026-04-28T10:32:10.582+00:00,1047,74595,179783.86488960564,180016.41243891863,179580.0840354066,179635.06932676665,180018.15587498614,179999.04513347687,179803.84734914868,179939.90241764812,TASK2
2026-04-28T10:32:10.582+00:00,1047,74596,179781.24973550436,180013.79728481738,179577.46888130534,179632.45417266537,180015.5407208849,179996.69820030907,179801.2321950474,179937.5554844803,TASK2
2026-04-28T10:32:10.582+00:00,1047,74597,179795.19722404447,180027.74477335747,179591.41636984542,179646.13344027204,180028.14710475766,180009.30458418184,179813.8385789202,179950.4300892866,TASK2
2026-04-28T10:32:10.582+00:00,1047,74598,179817.72778245542,180050.54355270189,179613.9469282564,179668.93221961643,180050.94588410208,180032.10336352626,179836.63735826462,179973.22886863098,TASK2
2026-04-28T10:32:10.582+00:00,1047,74599,179811.8939771526,180044.97796833253,179608.11312295354,179663.36663524708,180045.11207879925,180026.5377791569,179831.07177389524,179967.66328426162,TASK2
2026-04-28T10:32:10.582+00:00,1047,74600,179790.50335770886,180023.05090702185,179586.7225035098,179641.70779486987,180023.45323842205,180004.8789387797,179809.41293351803,179945.73622295095,TASK2
2026-04-28T10:32:10.582+00:00,1047,74601,179783.86488960564,180016.41243891863,179580.0840354066,179635.06932676665,180016.81477031883,179998.24047067648,179802.50624448137,179939.09775484772,TASK2
2026-04-28T10:32:10.882+00:00,1048,74602,179800.2263665469,180033.04213679337,179596.1772914144,179651.6990246414,180033.17624726013,180014.60194761775,179818.86772142263,179955.45923178902,TASK2
2026-04-28T10:32:10.882+00:00,1048,74603,179820.87937842362,180053.42692773664,179616.83030329112,179672.08381558463,180053.56103820336,180034.986738561,179839.52073329935,179976.11224366573,TASK2
2026-04-28T10:32:10.882+00:00,1048,74604,179814.2409103204,180046.7884596334,179610.46005612134,179665.71356841488,180047.1907910336,180028.61649139124,179833.15048612957,179969.47377556248,TASK2
2026-04-28T10:32:10.882+00:00,1048,74605,179794.19139554398,180027.00716579045,179590.41054134496,179645.66405363847,180027.1412762572,180008.29875568138,179813.10097135318,179949.4242607861,TASK2
2026-04-28T10:32:10.882+00:00,1048,74606,179790.50335770886,180023.31912795533,179586.7225035098,179641.70779486987,180023.45323842205,180004.61071784623,179809.41293351803,179945.73622295095,TASK2
2026-04-28T10:32:10.882+00:00,1048,74607,179808.47416025092,180041.28993049738,179604.6933060519,179659.9468183454,180041.15582003066,180022.5815203883,179827.38373606012,179963.70702549303,TASK2
2026-04-28T10:32:10.882+00:00,1048,74608,179829.66361399455,180062.479384241,179625.88275979552,179681.13627208903,180062.3452737743,180043.77097413194,179848.57318980375,179984.89647923666,TASK2
2026-04-28T10:32:10.882+00:00,1048,74609,179824.90269242556,180057.45024173858,179620.58539635962,179676.37535052004,180057.5843522053,180039.01005256295,179843.5440473013,179979.8673367342,TASK2
2026-04-28T10:32:10.882+00:00,1048,74610,179804.04851484878,180036.86428509525,179599.99943971628,179655.7893938767,180036.99839556197,180018.42409591962,179822.95809065795,179959.01315915742,TASK2
2026-04-28T10:32:10.882+00:00,1048,74611,179796.60538394516,180029.42115419163,179592.2880878792,179648.3462629731,180029.2870437249,180010.980965016,179815.51495975433,179951.5700282538,TASK2
2026-04-28T10:32:10.882+00:00,1048,74612,179813.50330275335,180046.05085206637,179609.45422762088,179665.2441817813,180045.91674159965,180027.61066289074,179832.14465762908,179968.46794706202,TASK2
2026-04-28T10:32:10.882+00:00,1048,74613,179834.96097743046,180067.24030581,179630.6436813645,179686.43363552494,180067.37441627673,180049.06833756785,179853.60233230618,179989.9256217391,TASK2
2026-04-28T10:32:10.882+00:00,1048,74614,179829.12717212763,180061.67472144062,179625.07809699513,179680.8680511556,180061.80883190737,180043.234532265,179848.0367479368,179984.36003736974,TASK2
2026-04-28T10:32:10.882+00:00,1048,74615,179809.6811544515,180043.0333665649,179606.10146595258,179661.22086777937,180042.83220086482,180024.05673552235,179829.12717212763,179964.98107492697,TASK2
2026-04-28T10:32:10.882+00:00,1048,74616,179804.11557008213,180037.19956126207,179600.5358815832,179655.3870624765,180036.99839556197,180017.95470928604,179823.2933668248,179959.14726962414,TASK2
2026-04-28T10:32:10.882+00:00,1048,74617,179821.28170982382,180054.36570100376,179617.43380039142,179672.82142315168,180054.16453530366,180035.12084902773,179840.45950656646,179976.31340936583,TASK2
2026-04-28T10:32:10.882+00:00,1048,74618,179843.5440473013,180076.62803848123,179639.42791693544,179695.35198156262,180076.42687278113,180057.3831865052,179862.72184404396,179998.5757468433,TASK2
2026-04-28T10:32:10.882+00:00,1048,74619,179839.05134666577,180072.4035587792,179634.93521629993,179691.12750186055,180071.66595121217,180053.15870680317,179858.22914340842,179993.8148252743,TASK2
2026-04-28T10:32:10.882+00:00,1048,74620,179818.197169089,180051.2811602689,179614.08103872312,179670.0051033503,180050.81177363536,180032.30452922636,179837.37496583164,179972.69242676406,TASK2
2026-04-28T10:32:10.882+00:00,1048,74621,179812.6315847196,180045.983796833,179608.7836752872,179664.7077399144,180045.51441019945,180026.738944857,179832.07760239573,179967.39506332815,TASK2
2026-04-28T10:32:10.882+00:00,1048,74622,179830.60238726166,180064.22282030853,179627.02269876274,179682.67854245644,180063.75343367498,180044.97796833253,179850.04840493778,179985.3658658702,TASK2
2026-04-28T10:32:10.882+00:00,1048,74623,179853.1329456726,180086.48515778602,179649.28503624024,179705.2091008674,180086.28399208593,180067.24030581,179872.31074241528,180008.16464521462,TASK2
2026-04-28T10:32:10.882+00:00,1048,74624,179848.6402450371,180081.72423621704,179644.7923356047,179700.71640023188,180081.7912914504,180062.7476051745,179867.81804177977,180003.40372364564,TASK2
2026-04-28T10:32:10.882+00:00,1048,74625,179838.51490479885,180071.5988959788,179634.66699536645,179690.59105999363,180073.81171867988,180054.49981147048,179859.8384690092,179994.88770900818,TASK2
2026-04-28T10:32:10.882+00:00,1048,74626,179839.85600946617,180072.9400006461,179636.00810003377,179691.6639437275,180075.95748614758,180056.6455789382,179861.9842364769,179997.0334764759,TASK2
2026-04-28T10:32:10.882+00:00,1048,74627,179842.00177693387,180075.3539890473,179638.15386750147,179693.8097111952,180075.488099514,180056.17619230464,179861.2466289099,179996.8323107758,TASK2
2026-04-28T10:32:10.882+00:00,1048,74628,179863.1912306775,180096.54344279092,179659.3433212451,179714.99916493884,180096.40933232417,180077.36564604825,179882.16786172005,180017.75354358595,TASK2
2026-04-28T10:32:10.882+00:00,1048,74629,179858.698530042,180091.78252122193,179654.31417874267,179710.23824336985,180091.38018982174,180072.6047244793,179877.67516108454,180012.992622017,TASK2
2026-04-28T10:32:10.882+00:00,1048,74630,179838.38079433213,180071.73300644552,179634.26466396626,179690.18872859344,180071.33067504532,180052.2869887694,179857.35742537468,179992.6748863071,TASK2
2026-04-28T10:32:10.882+00:00,1048,74631,179832.01054716235,180065.63098020921,179628.16263772995,179683.5502604902,180065.22864880902,180046.1849625331,179851.25539913838,179986.84108100427,TASK2
2026-04-28T10:32:10.882+00:00,1048,74632,179848.90846597057,180082.7971199509,179645.06055653817,179700.44817929843,180082.3947885507,180063.35110227478,179868.1533179466,180004.00722074593,TASK2
2026-04-28T10:32:10.882+00:00,1048,74633,179870.0979197142,180103.98657369454,179666.2500102818,179721.9058539755,180103.85246322778,180084.8087769519,179889.87921355714,180025.46489542304,TASK2
2026-04-28T10:32:10.882+00:00,1048,74634,179863.1912306775,180097.3481055913,179659.3433212451,179715.53560680576,180097.21399512456,180078.17030884864,179883.24074545392,180018.82642731981,TASK2
2026-04-28T10:32:10.882+00:00,1048,74635,179841.53239030033,180075.95748614758,179637.95270180138,179693.87676642856,180075.5551547474,180056.51146847146,179861.8501260102,179997.43580787609,TASK2
2026-04-28T10:32:10.882+00:00,1048,74636,179835.16214313055,180069.31901804436,179631.58245463163,179687.5065192588,180068.91668664417,180049.87300036824,179854.9434369735,179990.79733977286,TASK2
2026-04-28T10:32:10.882+00:00,1048,74637,179851.7918410053,180085.68049498563,179647.9439315729,179703.86799620008,180085.27816358543,180066.2344773095,179871.57313484824,180007.4270376476,TASK2
2026-04-28T10:32:10.882+00:00,1048,74638,179873.2495156824,180106.6017277958,179669.13338531653,179725.0574499437,180106.73583826254,180087.69215198662,179893.03080952534,180028.61649139124,TASK2
2026-04-28T10:32:10.882+00:00,1048,74639,179868.4885941134,180102.10902716027,179664.37246374757,179720.29652837475,180102.24313762703,180083.46767228455,179888.0016670229,180024.12379075572,TASK2
2026-04-28T10:32:10.882+00:00,1048,74640,179848.439079337,180082.0595123839,179644.32294897115,179700.24701359833,180082.46184378408,180063.6863784416,179868.22037317997,180004.0742759793,TASK2
2026-04-28T10:32:10.882+00:00,1048,74641,179841.26416936686,180074.88460241372,179637.41625993446,179693.07210362816,180075.2869338139,180056.243247538,179861.31368414327,179996.89936600917,TASK2
2026-04-28T10:32:10.882+00:00,1048,74642,179860.10668994268,180093.52595728944,179656.7952223772,179711.78051373726,180093.72712298954,180074.61638148027,179879.68681808552,180015.67483135161,TASK2
2026-04-28T10:32:10.882+00:00,1048,74643,179882.36902742015,180115.78829476694,179679.0575598547,179734.04285121473,180116.2576814005,180096.87871895774,179901.94915556302,180037.93716882908,TASK2
2026-04-28T10:32:10.882+00:00,1048,74644,179876.26700118388,180109.9544894641,179672.9555336184,179728.2090459119,180109.88743423074,180090.77669272144,179896.11535026017,180032.10336352626,TASK2
2026-04-28T10:32:10.882+00:00,1048,74645,179857.02214920786,180090.44141655462,179653.4424607089,179708.69597300244,180090.37436132124,180071.26361981197,179876.33405641722,180012.5902906168,TASK2
2026-04-28T10:32:10.882+00:00,1048,74646,179852.52944857234,180085.41227405216,179648.41331820647,179703.93505143345,180085.88166068573,180066.2344773095,179871.8413557817,180007.56114811433,TASK2
2026-04-28T10:32:10.882+00:00,1048,74647,179870.23203018092,180103.38307659424,179666.11589981508,179721.63763304206,180103.58424229434,180084.2052798516,179889.8121583238,180025.5319506564,TASK2
2026-04-28T10:32:10.882+00:00,1048,74648,179892.76258859187,180125.6454140717,179688.64645822602,179743.89997051953,180125.8465797718,180106.46761732906,179912.07449580127,180047.79428813388,TASK2
2026-04-28T10:32:10.882+00:00,1048,74649,179888.0016670229,180121.1527134362,179684.42197852395,179739.40726988402,180121.3538791363,180102.24313762703,179907.58179516575,180043.30158749837,TASK2
2026-04-28T10:32:10.882+00:00,1048,74650,179867.9521522465,180101.37141959326,179664.640684681,179719.89419697455,180101.57258529335,180082.73006471753,179887.8005013228,180023.52029365543,TASK2
2026-04-28T10:32:10.882+00:00,1048,74651,179861.58190507672,180095.0011724235,179657.73399564432,179713.2557288713,180094.66589625666,180076.0915966143,179880.89381228611,180016.8818255522,TASK2
2026-04-28T10:32:10.882+00:00,1048,74652,179878.7480448184,180111.8990912317,179674.900135386,179730.15364767952,180111.83203599835,180092.98951542252,179897.79173109433,180034.04796529387,TASK2
2026-04-28T10:32:10.882+00:00,1048,74653,179901.01038229588,180134.42964964267,179697.16247286348,179752.68420609046,180134.3625944093,180115.2518529,179920.32228950527,180056.5785237048,TASK2
2026-04-28T10:32:10.882+00:00,1048,74654,179897.0541235273,180130.47339087407,179693.47443502836,179748.99616825534,180130.4063356407,180111.29559413143,179916.63425167016,180052.8904858697,TASK2
2026-04-28T10:32:10.882+00:00,1048,74655,179890.68387635754,180124.1031437043,179687.1041878586,179742.35770015212,180127.2547396725,180107.87577722975,179912.94621383504,180049.20244803457,TASK2
2026-04-28T10:32:10.882+00:00,1048,74656,179896.31651596026,180129.73578330706,179692.73682746134,179747.99033975485,180134.22848394257,180114.8495214998,179919.6517371716,180055.90797137117,TASK2
2026-04-28T10:32:10.882+00:00,1048,74657,179889.94626879052,180123.36553613728,179686.3665802916,179741.6200925851,180123.83492277085,180104.45596032808,179909.52639693336,180045.7826311329,TASK2
2026-04-28T10:32:10.882+00:00,1048,74658,179909.52639693336,180142.67744334668,179705.67848750096,179760.93199979447,180142.87860904678,180123.499646604,179928.83830414276,180064.82631740882,TASK2
2026-04-28T10:32:10.882+00:00,1048,74659,179904.76547536437,180137.9165217777,179700.91756593197,179756.1710782255,180138.38590841123,180118.73872503504,179924.07738257377,180060.06539583986,TASK2
2026-04-28T10:32:10.882+00:00,1048,74660,179884.17951872104,180117.33056513435,179680.0633883552,179735.58512158217,180117.7999517679,180098.42098932515,179903.49142593044,180039.47943919653,TASK2
2026-04-28T10:32:10.882+00:00,1048,74661,179875.12706221663,180108.00988769648,179670.74271091731,179726.53266507777,180108.74749526352,180089.36853282075,179894.43896942603,180030.42698269212,TASK2
2026-04-28T10:32:10.882+00:00,1048,74662,179888.8063298233,180121.9573762366,179684.69019945743,179740.2119326844,180122.42676287016,180103.04780042742,179908.38645796615,180044.37447123224,TASK2
2026-04-28T10:32:10.882+00:00,1048,74663,179907.58179516575,180140.73284157904,179703.46566479988,179758.98739802686,180141.4704491461,180121.82326576987,179926.89370237512,180062.8817156412,TASK2
2026-04-28T10:32:10.882+00:00,1048,74664,179901.47976892945,180134.3625944093,179697.36363856358,179752.6171508571,180135.1002019763,180115.4530186001,179920.79167613885,180056.51146847146,TASK2
2026-04-28T10:32:10.882+00:00,1048,74665,179880.08914948572,180112.97197496556,179676.24124005332,179731.49475234683,180113.97780346606,180094.33062008984,179899.40105669512,180035.12084902773,TASK2
2026-04-28T10:32:10.882+00:00,1048,74666,179872.91423951558,180105.79706499542,179669.06633008318,179724.3198423767,180106.8028934959,180087.1557101197,179892.49436765842,180027.94593905756,TASK2
2026-04-28T10:32:10.882+00:00,1048,74667,179889.27571645685,180122.1585419367,179685.159586091,179740.4130983845,180123.16437043718,180103.51718706096,179908.8558445997,180044.57563693234,TASK2
2026-04-28T10:32:10.882+00:00,1048,74668,179912.34271673474,180144.9573212811,179707.69014450195,179763.21187772893,180145.9631497816,180126.0477454719,179931.6546239441,180067.6426372102,TASK2
2026-04-28T10:32:10.882+00:00,1048,74669,179909.45934169999,180142.07394624638,179705.07499040067,179760.06028176073,180143.07977474688,180123.16437043718,179928.77124890938,180064.491041242,TASK2
2026-04-28T10:32:10.882+00:00,1048,74670,179888.06872225626,180120.68332680265,179683.68437095694,179738.669662317,180121.68915530315,180102.04197192693,179907.64885039913,180043.10042179827,TASK2
2026-04-28T10:32:10.882+00:00,1048,74671,179877.67516108454,180110.02154469746,179673.02258885177,179728.27610114528,180111.02737319795,180091.38018982174,179896.98706829394,180032.43863969308,TASK2
2026-04-28T10:32:10.882+00:00,1048,74672,179893.50019615892,180125.8465797718,179688.84762392612,179744.10113621963,180126.8524082723,180107.20522489608,179912.54388243484,180048.26367476746,TASK2
2026-04-28T10:32:10.882+00:00,1048,74673,179917.1036383037,180150.7240713506,179713.52394980477,179768.97862779838,180150.6570161172,180131.5462746079,179936.68376644657,180072.9400006461,TASK2
2026-04-28T10:32:10.882+00:00,1048,74674,179915.29314700284,180148.64535911623,179711.7134585039,179766.89991556405,180148.84652481633,180129.46756237358,179934.87327514568,180070.86128841178,TASK2
2026-04-28T10:32:10.882+00:00,1048,74675,179897.12117876066,180130.74161180752,179693.54149026173,179748.99616825534,180130.94277750762,180111.29559413143,179917.23774877045,180052.6893201696,TASK2
2026-04-28T10:32:10.882+00:00,1048,74676,179892.09203625823,180125.7124693051,179688.24412682583,179743.9670257529,180126.18185593866,180106.53467256244,179912.208606268,180047.66017766716,TASK2
2026-04-28T10:32:11.288+00:00,1049,74677,179912.74504813494,180146.3654811818,179709.16535963598,179764.88825856306,180146.83486781534,180127.18768443915,179932.8616181447,180068.31318954387,TASK2
2026-04-28T10:32:11.288+00:00,1049,74678,179939.5671414813,180173.18757452816,179735.98745298237,179791.71035190945,180173.65696116173,180154.0097777855,179959.4154905576,180095.4035038237,TASK2
2026-04-28T10:32:11.288+00:00,1049,74679,179939.5671414813,180173.45579546163,179736.25567391582,179791.71035190945,180173.65696116173,180154.0097777855,179959.4154905576,180095.2023381236,TASK2
2026-04-28T10:32:11.288+00:00,1049,74680,179924.34560350722,180158.23425748755,179720.7659150083,179776.48881393537,180158.1672022542,180138.52001887799,179944.19395258353,180079.71257921608,TASK2
2026-04-28T10:32:11.288+00:00,1049,74681,179921.4622284725,180155.08266151935,179717.6143190401,179773.33721796717,180155.015606286,180135.36842290979,179941.04235661533,180076.82920418133,TASK2
2026-04-28T10:32:11.288+00:00,1049,74682,179940.5059147484,180174.39456872875,179736.9262262495,179792.64912517657,180174.05929256193,180154.68033011915,179960.08604289126,180096.14111139072,TASK2
2026-04-28T10:32:11.288+00:00,1049,74683,179962.7682522259,180197.19334807317,179759.45678466043,179815.1796835875,180196.58985097287,180177.21088853013,179982.6166013022,180118.4034488682,TASK2
2026-04-28T10:32:11.288+00:00,1049,74684,179957.20266785653,180191.89598463726,179753.6229793576,179809.3458782847,180191.29248753696,180171.91352509422,179977.05101693285,180112.56964356537,TASK2
2026-04-28T10:32:11.288+00:00,1049,74685,179937.4213740136,180172.38291172776,179733.84168551466,179789.8328053752,180173.38874022826,180153.74155685204,179958.87904869067,180094.3976753232,TASK2
2026-04-28T10:32:11.288+00:00,1049,74686,179928.63713844266,180163.06223428992,179725.0574499437,179781.04856980426,180165.40916745772,180145.7619840815,179950.63125498666,180086.68632348612,TASK2
2026-04-28T10:32:11.288+00:00,1049,74687,179931.0511268438,180165.74444362454,179727.4714383449,179783.7307791389,180165.67738839117,180146.03020501495,179950.89947592013,180086.9545444196,TASK2
2026-04-28T10:32:11.288+00:00,1049,74688,179945.53505725085,180179.96015309813,179741.68714781848,179797.678267679,180179.89309786475,180159.97769355506,179965.11518539372,180101.17025389316,TASK2
2026-04-28T10:32:11.288+00:00,1049,74689,179935.67793794608,180170.10303379333,179731.83002851368,179788.08936930768,180170.03597855996,180150.1205742503,179955.5262870224,180091.0449136549,TASK2
2026-04-28T10:32:11.288+00:00,1049,74690,179914.01909756887,180148.44419341613,179710.43940906995,179766.43052893048,180148.37713818278,180128.4617338731,179934.13566757867,180069.65429421118,TASK2
2026-04-28T10:32:11.288+00:00,1049,74691,179906.30774573178,180140.4646206456,179702.72805723286,179758.71917709342,180140.93400727914,180120.750382036,179926.1560948081,180061.67472144062,TASK2
2026-04-28T10:32:11.288+00:00,1049,74692,179924.0103273404,180158.1672022542,179720.43063884147,179776.421758702,180158.63658888775,180138.4529636446,179943.8586764167,180079.10908211578,TASK2
2026-04-28T10:32:11.288+00:00,1049,74693,179948.15021135213,180182.30708626594,179744.5705228532,179800.56164271373,180183.04469383296,180162.59284765634,179967.99856042844,180103.51718706096,TASK2
2026-04-28T10:32:11.288+00:00,1049,74694,179947.2784933184,180181.10009206535,179744.3693571531,179799.4887589799,180181.03303683197,180162.19051625615,179967.39506332815,180102.98074519404,TASK2
2026-04-28T10:32:11.288+00:00,1049,74695,179931.2522925439,180165.07389129087,179728.34315637866,179783.46255820544,180165.00683605752,180146.1643154817,179951.3688625537,180086.9545444196,TASK2
2026-04-28T10:32:11.288+00:00,1049,74696,179926.49137097495,180160.3129697219,179723.3140138762,179778.43341570298,180159.97769355506,180141.13517297924,179946.33972005124,180081.92540191713,TASK2
2026-04-28T10:32:11.288+00:00,1049,74697,179946.33972005124,180179.89309786475,179742.89414201904,179798.01354384582,180179.82604263138,180160.98352205555,179966.18806912756,180102.04197192693,TASK2
2026-04-28T10:32:11.288+00:00,1049,74698,179970.74782499645,180204.30120280993,179767.30224696425,179822.6898697245,180204.2341475766,180185.39162700076,179990.59617407277,180126.4500768721,TASK2
2026-04-28T10:32:11.288+00:00,1049,74699,179967.86444996172,180201.68604870868,179764.41887192952,179819.80649468975,180201.6189934753,180182.50825196604,179987.98101997148,180123.83492277085,TASK2
2026-04-28T10:32:11.288+00:00,1049,74700,179959.88487719116,180193.43825500467,179756.43929915896,179811.55870098574,180196.3216300394,180177.21088853013,179982.68365653558,180118.26933840147,TASK2
2026-04-28T10:32:11.288+00:00,1049,74701,179958.34260682375,180191.89598463726,179754.6288078581,179810.01643061833,180195.3158015389,180176.20506002964,179981.67782803508,180116.9952889675,TASK2
2026-04-28T10:32:11.288+00:00,1049,74702,179955.45923178902,180188.74438866906,179751.74543282334,179807.1330555836,180188.94555436916,180170.10303379333,179975.57580179878,180110.89326273123,TASK2
2026-04-28T10:32:11.288+00:00,1049,74703,179975.03935993186,180208.3245168119,179771.05734003274,179826.44496279297,180208.25746157853,180189.68316193618,179994.88770900818,180130.2051699406,TASK2
2026-04-28T10:32:11.288+00:00,1049,74704,179968.66911276212,180201.95426964213,179764.68709286297,179820.07471562322,180201.88721440878,180183.3129147664,179988.78568277188,180124.1031437043,TASK2
2026-04-28T10:32:11.288+00:00,1049,74705,179946.473830518,180179.75898739803,179742.76003155232,179797.8794333791,180179.96015309813,180161.1176325223,179966.3221795943,180101.90786146017,TASK2
2026-04-28T10:32:11.288+00:00,1049,74706,179937.15315308011,180170.17008902668,179733.43935411447,179788.29053500778,180170.37125472678,180151.52873415095,179956.73328122296,180092.31896308885,TASK2
2026-04-28T10:32:11.288+00:00,1049,74707,179951.90530442062,180184.9222403672,179748.19150545495,179803.0426863483,180185.39162700076,180166.28088549146,179971.75365349694,180107.07111442936,TASK2
2026-04-28T10:32:11.288+00:00,1049,74708,179972.55831629733,180205.84347317737,179768.57629639818,179823.695698225,180206.04463887747,180187.20211830165,179992.40666537365,180127.72412630607,TASK2
2026-04-28T10:32:11.288+00:00,1049,74709,179967.26095286143,180200.54610974147,179763.54715389575,179818.934776656,180201.015496375,180182.44119673266,179987.3775228712,180122.6949838036,TASK2
2026-04-28T10:32:11.288+00:00,1049,74710,179947.211438085,180180.49659496505,179743.49763911933,179798.8852618796,180180.9659815986,180162.12346102277,179967.32800809477,180102.91368996067,TASK2
2026-04-28T10:32:11.288+00:00,1049,74711,179940.84119091523,180174.12634779527,179737.1273919496,179792.24679377637,180174.59573442885,180155.75321385302,179960.95776092503,180096.54344279092,TASK2
2026-04-28T10:32:11.288+00:00,1049,74712,179959.34843532424,180192.63359220428,179755.63463635856,179810.75403818535,180193.10297883785,180174.26045826203,179979.73322626748,180114.78246626645,TASK2
2026-04-28T10:32:11.288+00:00,1049,74713,179982.4154356021,180215.70059248214,179778.70163663646,179833.82103846324,180216.16997911572,180197.05923760642,180002.5320056119,180137.8494665443,TASK2
2026-04-28T10:32:11.288+00:00,1049,74714,179978.45917683354,180212.01255464702,179775.01359880134,179830.13300062812,180212.4819412806,180193.3711997713,179998.84396777677,180134.1614287092,TASK2
2026-04-28T10:32:11.288+00:00,1049,74715,179959.48254579096,180193.03592360448,179756.30518869223,179811.15636958554,180193.23708930457,180174.66278966222,179979.8673367342,180114.91657673317,TASK2
2026-04-28T10:32:11.288+00:00,1049,74716,179952.03941488735,180185.32457176739,179748.86205778862,179803.71323868193,180185.79395840096,180167.21965875858,179972.15598489714,180107.74166676303,TASK2
2026-04-28T10:32:11.288+00:00,1049,74717,179970.01021742943,180203.027153376,179766.29641846375,179821.684041224,180203.49654000957,180184.9222403672,179989.85856650575,180125.4442483716,TASK2
2026-04-28T10:32:11.288+00:00,1049,74718,179992.00433397345,180225.28949085347,179788.29053500778,179843.67815776804,180225.49065655356,180206.9163569112,180011.85268304974,180147.43836491564,TASK2
2026-04-28T10:32:11.288+00:00,1049,74719,179990.19384267257,180223.4789995526,179786.01065707335,179841.86766646715,180223.74722048605,180204.50236851003,180009.70691558204,180145.62787361478,TASK2
2026-04-28T10:32:11.288+00:00,1049,74720,179971.75365349694,180204.7705894435,179767.83868883117,179823.42747729152,180205.5752522439,180186.0621793344,179991.2667264064,180127.18768443915,TASK2
2026-04-28T10:32:11.288+00:00,1049,74721,179964.84696446024,180197.8639004068,179761.20022072794,179816.52078825483,180198.6685632072,180179.15549029774,179984.36003736974,180120.01277446898,TASK2
2026-04-28T10:32:11.288+00:00,1049,74722,179980.94022046807,180214.2253773481,179777.56169766924,179832.88226519612,180214.76181921503,180195.24874630556,180000.721514311,180136.1060304768,TASK2
2026-04-28T10:32:11.288+00:00,1049,74723,180001.86145327822,180235.6830520252,179798.4829304794,179854.07171893975,180235.95127295866,180216.16997911572,180021.6427471212,180157.29548422043,TASK2
2026-04-28T10:32:11.288+00:00,1049,74724,179996.29586890887,180229.84924672236,179792.3809042431,179847.96969270345,180230.11746765583,180210.3361738129,180015.5407208849,180151.4616789176,TASK2
2026-04-28T10:32:11.288+00:00,1049,74725,179976.24635413245,180209.79973194594,179772.33138946668,179827.92017792704,180210.3361738129,180190.55487996995,179995.75942704192,180131.4121641412,TASK2
2026-04-28T10:32:11.288+00:00,1049,74726,179968.53500229536,180202.08838010888,179764.88825856306,179820.20882608995,180202.6248219758,180183.1117490663,179988.3162961383,180123.7008123041,TASK2
2026-04-28T10:32:11.288+00:00,1049,74727,179987.04224670437,180220.3274035844,179783.39550297207,179838.71607049895,180220.86384545133,180201.6189934753,180006.55531961384,180142.2080567131,TASK2
2026-04-28T10:32:11.288+00:00,1049,74728,180009.5728051153,180242.58974106188,179805.65784044954,179860.97840797642,180243.39440386227,180223.8813309528,180028.81765709133,180164.4703941906,TASK2
2026-04-28T10:32:11.288+00:00,1049,74729,180005.61654634672,180238.90170322676,179801.96980261442,179857.2903701413,180239.70636602715,180220.19329311766,180025.12961925621,180160.78235635546,TASK2
2026-04-28T10:32:11.288+00:00,1049,74730,179990.6632293061,180224.21660711963,179787.2847065073,179842.60527403417,180226.09415365386,180206.84930167784,180011.7856278164,180147.1701439822,TASK2
2026-04-28T10:32:11.288+00:00,1049,74731,179985.3658658702,180218.91924368372,179781.98734307138,179837.30791059826,180221.3332320849,180202.08838010888,180007.0247062474,180142.14100147973,TASK2
2026-04-28T10:32:11.288+00:00,1049,74732,179994.75359854146,180227.77053448802,179791.3750757426,179846.42742233604,180228.84341822186,180209.3303453124,180014.80311331784,180149.9194085502,TASK2
2026-04-28T10:32:11.288+00:00,1049,74733,180015.1383894847,180248.42354636473,179811.75986668584,179866.81221327928,180249.2282091651,180229.71513625563,180034.91968332764,180170.57242042688,TASK2
2026-04-28T10:32:11.288+00:00,1049,74734,180008.49992138147,180241.78507826148,179804.85317764917,179859.90552424258,180242.32152012843,180222.80844721894,180028.01299429094,180163.6657313902,TASK2
2026-04-28T10:32:11.288+00:00,1049,74735,179985.7681972704,180219.32157508392,179782.38967447157,179837.44202106498,180219.85801695084,180200.0767231079,180005.54949111337,180140.93400727914,TASK2
2026-04-28T10:32:11.288+00:00,1049,74736,179975.10641516524,180208.9280139122,179771.99611329986,179827.04845989327,180209.19623484567,180189.4149410027,179994.88770900818,180130.27222517398,TASK2
2026-04-28T10:32:11.288+00:00,1049,74737,179990.6632293061,180224.4848280531,179787.55292744076,179842.60527403417,180224.75304898655,180204.9717551436,180010.71274408253,180146.09726024832,TASK2
2026-04-28T10:32:11.288+00:00,1049,74738,180012.65734585014,180246.4789445971,179809.54704398478,179864.5993905782,180246.74716553057,180227.2340926211,180032.70686062655,180168.09137679235,TASK2
2026-04-28T10:32:11.288+00:00,1049,74739,180009.7739708154,180243.32734862893,179806.66366895003,179861.71601554347,180243.86379049585,180224.0824966529,180029.55526465835,180165.20800175762,TASK2
2026-04-28T10:32:11.288+00:00,1049,74740,179989.18801417208,180222.74139198556,179786.34593324017,179841.13005890013,180223.00961291904,180203.49654000957,180008.96930801502,180144.89026604773,TASK2
2026-04-28T10:32:11.288+00:00,1049,74741,179980.6719995346,180214.49359828158,179777.82991860269,179832.88226519612,180214.76181921503,180195.24874630556,180000.721514311,180136.37425141028,TASK2
2026-04-28T10:32:11.288+00:00,1049,74742,179999.44746487707,180233.26906362403,179796.60538394516,179851.3895096051,180233.53728455747,180214.29243258148,180019.49697965346,180155.14971675273,TASK2
2026-04-28T10:32:11.288+00:00,1049,74743,180023.85556982225,180257.40894763576,179821.01348889034,179875.7976145503,180257.94538950268,180238.4323165932,180043.6368636652,180179.55782169793,TASK2
2026-04-28T10:32:11.288+00:00,1049,74744,180020.4357529206,180253.9891307341,179817.5936719887,179872.1095767152,180254.79379353448,180235.01249969154,180040.21704676354,180175.86978386278,TASK2
2026-04-28T10:32:11.288+00:00,1049,74745,180001.99556374497,180235.54894155846,179799.15348281307,179853.937608473,180236.08538342538,180216.5723105159,180021.77685758792,180157.1613737537,TASK2
2026-04-28T10:32:11.288+00:00,1049,74746,179997.30169740936,180230.78801998947,179793.1855670435,179848.77435550385,180230.58685428937,180211.54316801348,180016.74771508545,180152.53456265145,TASK2
2026-04-28T10:32:11.288+00:00,1049,74747,180015.80894181834,180249.29526439848,179811.6928114525,179867.5498208463,180249.09409869838,180229.782191489,180034.986738561,180171.04180706045,TASK2
2026-04-28T10:32:11.288+00:00,1049,74748,180038.07127929584,180271.55760187597,179834.49159079688,179889.8121583238,180271.62465710932,180252.31274989995,180057.51729697196,180193.5723654714,TASK2
2026-04-28T10:32:11.288+00:00,1049,74749,180034.65146239416,180268.1377849743,179831.07177389524,179886.39234142212,180268.20484020768,180249.16115393175,180054.36570100376,180190.15254856975,TASK2
2026-04-28T10:32:11.288+00:00,1049,74750,180016.479494152,180249.69759579867,179813.16802658653,179868.22037317997,180250.30109289897,180230.98918568957,180035.92551182813,180172.24880126104,TASK2
2026-04-28T10:32:11.288+00:00,1049,74751,180009.0363632484,180242.25446489506,179805.45667474944,179860.77724227632,180242.58974106188,180223.00961291904,180028.21415999104,180164.80567035743,TASK2
2026-04-28T10:32:11.288+00:00,1049,74752,180026.47072392353,180259.42060463675,179822.35459355765,179877.943382018,180259.75588080357,180239.90753172725,180045.64852066617,180181.70358916564,TASK2
2026-04-28T10:32:11.288+00:00,1049,74753,180049.00128233447,180281.9511630477,179844.88515196863,179900.47394042896,180282.2864392145,180262.4380901382,180067.91085814367,180203.9659266431,TASK2
2026-04-28T10:32:11.288+00:00,1049,74754,180045.84968636627,180278.7995670795,179842.00177693387,179897.32234446076,180279.4030641798,180259.28649417,180065.02748310892,180201.0825516084,TASK2
2026-04-28T10:32:11.288+00:00,1049,74755,180026.06839252333,180259.01827323655,179822.22048309093,179877.8092715513,180259.62177033682,180239.50520032705,180044.97796833253,180181.30125776544,TASK2
2026-04-28T10:32:11.288+00:00,1049,74756,180018.0888197528,180251.57514233293,179814.50913125384,179870.0979197142,180251.91041849976,180231.79384848996,180037.26661649544,180173.58990592835,TASK2
2026-04-28T10:32:11.288+00:00,1049,74757,180035.52318042793,180269.27772394152,179831.94349192898,179887.53228038934,180269.61300010837,180249.2282091651,180054.96919810405,180191.29248753696,TASK2
2026-04-28T10:32:11.288+00:00,1049,74758,180058.32195977235,180291.80828235246,179854.47405033995,179910.06283880028,180292.1435585193,180271.75876757607,180077.76797744844,180213.8230459479,TASK2
2026-04-28T10:32:11.288+00:00,1049,74759,180055.17036380415,180288.38846545081,179851.32245437175,179906.91124283208,180288.72374161764,180268.60717160787,180074.3481605468,180210.40322904623,TASK2
2026-04-28T10:32:11.288+00:00,1049,74760,180047.1907910336,180280.67711361372,179843.3428816012,179899.19989099502,180283.42637818173,180263.30980817197,180069.0507971109,180204.83764467688,TASK2
2026-04-28T10:32:11.288+00:00,1049,74761,180048.80011663437,180282.2864392145,179844.95220720198,179901.07743752925,180286.37680844983,180266.26023844007,180071.73300644552,180207.78807494498,TASK2
2026-04-28T10:32:11.288+00:00,1049,74762,180046.72140440004,180280.20772698018,179842.60527403417,179898.46228342797,180280.543003147,180260.4264331372,180066.4356430096,180202.49071150908,TASK2
2026-04-28T10:32:11.288+00:00,1049,74763,180066.8379744098,180300.05607605647,179862.4536231105,179918.3106325043,180300.39135222332,180280.00656128008,180086.28399208593,180222.07083965192,TASK2
2026-04-28T10:32:11.288+00:00,1049,74764,180062.3452737743,180295.2951544875,179857.96092247497,179913.54971093533,180295.8986515878,180275.51386064454,180081.7912914504,180217.30991808293,TASK2
2026-04-28T10:32:11.288+00:00,1049,74765,180042.56397993135,180275.782081578,179838.17962863203,179894.03663802583,180276.11735774484,180255.7325668016,180062.00999760747,180197.2604033065,TASK2
2026-04-28T10:32:11.288+00:00,1049,74766,180034.58440716082,180268.07072974092,179830.46827679494,179886.32528618874,180268.40600590777,180248.02121496454,180054.0304248369,180189.8172724029,TASK2
2026-04-28T10:32:11.288+00:00,1049,74767,180052.01876783595,180285.23686948261,179847.6344165366,179903.49142593044,180285.8403665829,180265.45557563967,180071.46478551207,180207.25163307803,TASK2
2026-04-28T10:32:11.288+00:00,1049,74768,180074.5493262469,180307.49920696008,179869.8967540141,179926.02198434138,180308.37092499385,180287.98613405062,180093.99534392302,180230.05041242245,TASK2
2026-04-28T10:32:11.288+00:00,1049,74769,180070.5930674783,180303.81116912497,179865.9404952455,179922.33394650626,180304.41466622526,180284.02987528202,180090.3073060879,180226.36237458733,TASK2
2026-04-28T10:32:11.288+00:00,1049,74770,180050.81177363536,180284.02987528202,179846.15920140257,179902.28443172984,180284.36515144884,180264.24858143908,180070.25779131148,180206.31285981092,TASK2
2026-04-28T10:32:11.288+00:00,1049,74771,180041.75931713096,180275.2456397111,179837.37496583164,179893.50019615892,180275.58091587792,180255.46434586815,180061.20533480708,180197.52862424,TASK2
2026-04-28T10:32:11.288+00:00,1049,74772,180059.1936778061,180292.68000038623,179854.5411055733,179910.66633590058,180292.7470556196,180272.8987065433,180078.6396954822,180214.96298491512,TASK2
2026-04-28T10:32:11.288+00:00,1049,74773,180081.4560152836,180315.47877973065,179877.07166398424,179933.19689431152,180315.27761403055,180295.42926495423,180101.17025389316,180237.49354332607,TASK2
2026-04-28T10:32:11.288+00:00,1049,74774,180078.03619838192,180312.05896282897,179873.6518470826,179929.77707740988,180311.58957619543,180292.00944805256,180097.7504369915,180234.07372642442,TASK2
2026-04-28T10:32:11.288+00:00,1049,74775,180058.52312547245,180292.27766898603,179854.40699510658,179910.26400450038,180292.07650328593,180272.4963751431,180078.23736408202,180214.56065351493,TASK2
2026-04-28T10:32:11.288+00:00,1049,74776,180049.20244803457,180282.95699154818,179845.0863176687,179900.94332706253,180282.7558258481,180262.90747677177,180068.91668664417,180204.9717551436,TASK2
2026-04-28T10:32:11.606+00:00,1050,74777,180068.31318954387,180301.53129119053,179864.26411441137,179919.91995810508,180301.86656735736,180282.7558258481,180087.82626245334,180223.8813309528,TASK2
2026-04-28T10:32:11.606+00:00,1050,74778,180089.77086422095,180322.9889658676,179885.453568155,179941.1094118487,180323.056021101,180303.67705865824,180109.01571619697,180245.07078469644,TASK2
2026-04-28T10:32:11.606+00:00,1050,74779,180084.2052798516,180317.42338149826,179879.88798378562,179935.54382747933,180317.49043673163,180298.11147428886,180103.71835276106,180239.50520032705,TASK2
2026-04-28T10:32:11.606+00:00,1050,74780,180063.61932320826,180297.10564578837,179859.3020271423,179914.957870836,180297.17270102174,180277.793738579,180083.4006170512,180219.45568555064,TASK2
2026-04-28T10:32:11.606+00:00,1050,74781,180054.8350876373,180288.053189284,179850.51779157136,179906.17363526506,180288.12024451734,180268.7412820746,180074.07993961332,180210.1350081128,TASK2
2026-04-28T10:32:11.606+00:00,1050,74782,180071.1965645786,180304.14644529182,179866.61104757918,179922.26689127288,180304.48172145864,180284.83453808242,180090.17319562114,180226.49648505406,TASK2
2026-04-28T10:32:11.606+00:00,1050,74783,180092.6542392557,180326.1405618358,179888.33694318973,179944.2610078169,180326.2076170692,180306.56043369297,180112.16731216517,180248.49060159808,TASK2
