timestamp_utc,packet_index,sample_index,AF3,AF4,F3,F4,FC5,FC6,O2,O1,label
2026-04-28T10:30:58.446+00:00,827,56502,151260.7143832105,151489.97622608856,151078.65942462202,151133.9799921489,151480.11910678376,151452.82762680383,151269.49861878142,151405.08430064732,TASK1
2026-04-28T10:30:58.446+00:00,827,56503,151282.44027882104,151511.9703426326,151100.38532023257,151155.97410869293,151502.1132233278,151474.5535224144,151291.22451439197,151426.81019625787,TASK1
2026-04-28T10:30:58.446+00:00,827,56504,151300.94752323005,151530.4775870416,151118.89256464157,151174.4813531019,151520.6204677368,151493.0607668234,151309.4635378675,151445.0492197334,TASK1
2026-04-28T10:30:58.446+00:00,827,56505,151296.18660166106,151525.44844453913,151114.1316430726,151169.45221059947,151516.6642089682,151489.1045080548,151305.5072790989,151441.0929609648,TASK1
2026-04-28T10:30:58.446+00:00,827,56506,151275.60064501772,151504.59426696235,151093.27746549578,151148.59803302266,151496.34647325834,151468.250330478,151284.92132245557,151420.77522525494,TASK1
2026-04-28T10:30:58.446+00:00,827,56507,151271.64438624913,151500.36978726028,151089.05298579374,151144.37355332062,151490.78088888896,151462.68474610863,151279.35573808622,151415.47786181903,TASK1
2026-04-28T10:30:58.446+00:00,827,56508,151293.10206092623,151522.09568287083,151110.7788814043,151165.8312279977,151512.23856356606,151484.14242078573,151301.08163369677,151437.20375742958,TASK1
2026-04-28T10:30:58.446+00:00,827,56509,151312.68218906908,151542.21225288062,151130.6272304806,151185.9477980075,151532.08691264235,151504.52721172897,151321.46642464,151457.32032743935,TASK1
2026-04-28T10:30:58.446+00:00,827,56510,151304.7026162985,151533.9644591766,151122.3794367766,151177.70000430348,151523.83911893834,151496.54763895844,151313.218630936,151449.07253373537,TASK1
2026-04-28T10:30:58.446+00:00,827,56511,151281.70267125402,151510.69629319862,151099.37949173208,151154.4318383255,151500.83917389385,151473.54769391392,151289.95046495803,151425.80436775737,TASK1
2026-04-28T10:30:58.446+00:00,827,56512,151285.45776432252,151514.18316533367,151103.13458480057,151157.91871046054,151504.32604602887,151477.03456604894,151293.43733709306,151429.2912398924,TASK1
2026-04-28T10:30:58.446+00:00,827,56513,151306.64721806615,151535.3726190773,151124.05581761073,151179.10816420417,151525.5154997725,151498.22401979257,151314.6267908367,151450.21247270258,TASK1
2026-04-28T10:30:58.446+00:00,827,56514,151325.4226834086,151554.14808441975,151142.8312829532,151197.88362954662,151544.0227441815,151516.99948513502,151333.40225617914,151469.2561589785,TASK1
2026-04-28T10:30:58.446+00:00,827,56515,151315.29734317033,151544.0227441815,151132.70594271494,151187.4900683749,151533.89740394324,151506.33770302986,151323.00869500742,151459.13081874023,TASK1
2026-04-28T10:30:58.446+00:00,827,56516,151289.34696785774,151518.0723688689,151106.75556740232,151161.53969306228,151507.94702863062,151480.38732771724,151297.0583196948,151433.18044342764,TASK1
2026-04-28T10:30:58.446+00:00,827,56517,151289.88340972466,151518.6088107358,151107.5602302027,151162.0761349292,151508.751691431,151481.19199051763,151297.8629824952,151433.71688529456,TASK1
2026-04-28T10:30:58.446+00:00,827,56518,151307.58599133327,151536.31139234442,151125.26281181132,151179.7787165378,151526.45427303962,151498.62635119277,151315.29734317033,151451.41946690317,TASK1
2026-04-28T10:30:58.446+00:00,827,56519,151325.95912527552,151555.82446525389,151143.83711145367,151199.35884468065,151545.76618024902,151517.6700374687,151333.80458757933,151470.261987479,TASK1
2026-04-28T10:30:58.446+00:00,827,56520,151314.49268036996,151544.62624128177,151132.63888748156,151188.16062070854,151534.5679562769,151506.74003443005,151322.60636360722,151459.06376350689,TASK1
2026-04-28T10:30:58.446+00:00,827,56521,151288.27408412387,151518.4076450357,151106.4202912355,151161.94202446248,151508.08113909737,151480.52143818396,151296.6559882946,151432.8451672608,TASK1
2026-04-28T10:30:58.446+00:00,827,56522,151290.9562934585,151520.8216334369,151109.3707215036,151164.89245473058,151510.49512749852,151482.93542658514,151299.6064185627,151435.52737659545,TASK1
2026-04-28T10:30:58.446+00:00,827,56523,151312.14574720213,151541.74286624705,151130.29195431375,151186.0819084742,151531.68458124215,151504.12488032877,151320.5276513729,151456.4486094056,TASK1
2026-04-28T10:30:58.446+00:00,827,56524,151331.725875345,151561.59121532337,151149.87208245663,151205.66203661705,151551.53293031847,151523.70500847162,151339.83955858226,151475.76051661497,TASK1
2026-04-28T10:30:58.446+00:00,827,56525,151323.20986070752,151553.07520068588,151141.35606781914,151197.1460219796,151542.74869474754,151515.18899383416,151331.59176487825,151467.512722911,TASK1
2026-04-28T10:30:58.446+00:00,827,56526,151300.47813659647,151530.0752556414,151118.6243437081,151174.41429786856,151520.28519156997,151492.18904878965,151308.59181983376,151444.78099879992,TASK1
2026-04-28T10:30:58.446+00:00,827,56527,151303.1603459311,151532.75746497602,151121.03833210928,151177.09650720318,151522.9674009046,151494.87125812427,151311.0058082349,151447.46320813458,TASK1
2026-04-28T10:30:58.446+00:00,827,56528,151322.20403220702,151551.80115125194,151139.81379745173,151195.87197254563,151541.74286624705,151513.9149444002,151330.04949451084,151466.23867347703,TASK1
2026-04-28T10:30:58.446+00:00,827,56529,151339.10195101524,151568.9672909936,151156.71171625995,151213.03811228732,151558.90900598874,151531.0810841419,151346.94741331905,151483.40481321872,TASK1
2026-04-28T10:30:58.446+00:00,827,56530,151329.51305264392,151559.37839262228,151147.39103882207,151203.71743484944,151549.58832855086,151521.760406704,151337.6267358812,151474.08413578084,TASK1
2026-04-28T10:30:58.446+00:00,827,56531,151308.92709600058,151538.5242150455,151126.80508217873,151183.39969913958,151529.00237190753,151500.9062291272,151317.04077923787,151453.4981791375,TASK1
2026-04-28T10:30:58.446+00:00,827,56532,151315.09617747023,151544.42507558168,151132.9741636484,151189.3005596758,151534.90323244373,151506.8070896634,151322.94163977404,151459.3990396737,TASK1
2026-04-28T10:30:58.446+00:00,827,56533,151338.16317774812,151567.76029679304,151156.04116392627,151212.36755995365,151557.70201178815,151529.8740899413,151346.00864005194,151482.73426088504,TASK1
2026-04-28T10:30:58.446+00:00,827,56534,151361.76661989294,151591.6319598713,151179.91282700456,151235.97100209846,151581.5736748664,151553.74575301955,151369.61208219675,151506.33770302986,TASK1
2026-04-28T10:30:58.446+00:00,827,56535,151368.20392229606,151598.3374832079,151186.61835034113,151242.67652543506,151590.15674473724,151562.32882289038,151377.9269311341,151514.6525519672,TASK1
2026-04-28T10:30:58.446+00:00,827,56536,151358.0785820578,151587.94392203618,151176.2247891694,151232.28296426334,151580.8360672994,151553.27636638598,151368.60625369626,151505.6000954628,TASK1
2026-04-28T10:30:58.446+00:00,827,56537,151340.1748347491,151569.771953794,151158.05282092726,151214.11099602116,151559.98188972258,151532.4221888092,151347.48385518597,151484.74591788603,TASK1
2026-04-28T10:30:58.446+00:00,827,56538,151357.60919542424,151587.20631446913,151175.4871816024,151231.5453566963,151577.14802946427,151549.58832855086,151364.9182158611,151501.9120576277,TASK1
2026-04-28T10:30:58.446+00:00,827,56539,151375.5799979663,151605.17711701122,151193.45798414445,151249.51615923838,151595.11883200632,151567.8273520264,151382.8890184032,151520.15108110322,TASK1
2026-04-28T10:30:58.446+00:00,827,56540,151365.18643679458,151594.7835558395,151183.3326439062,151239.3908190001,151584.45704990113,151557.43379085467,151372.49545723147,151509.7575199315,TASK1
2026-04-28T10:30:58.446+00:00,827,56541,151339.7725033489,151569.63784332728,151158.18693139398,151213.97688555444,151559.84777925586,151532.019857409,151347.34974471925,151484.61180741928,TASK1
2026-04-28T10:30:58.446+00:00,827,56542,151338.76667484842,151568.3637938933,151156.91288196004,151212.97105705395,151558.84195075536,151531.0140289085,151346.0756952853,151483.60597891881,TASK1
2026-04-28T10:30:58.446+00:00,827,56543,151355.93281459008,151586.06637550192,151173.81080076826,151230.13719679564,151576.00809049705,151548.18016865017,151363.51005596045,151500.77211866048,TASK1
2026-04-28T10:30:58.446+00:00,827,56544,151371.75784966446,151602.15963150974,151189.90405677608,151245.96223186998,151592.10134650485,151564.273424658,151379.60331196827,151516.8653746683,TASK1
2026-04-28T10:30:58.446+00:00,827,56545,151359.48674195848,151589.62030287032,151177.6329490701,151233.691124164,151579.56201786542,151552.00231695204,151367.3322042623,151504.32604602887,TASK1
2026-04-28T10:30:58.446+00:00,827,56546,151335.6821341136,151565.68158455868,151153.8283412252,151209.35007445217,151555.69035478716,151528.19770910713,151343.92992781757,151479.98499631704,TASK1
2026-04-28T10:30:58.446+00:00,827,56547,151335.95035504704,151565.94980549216,151153.8283412252,151209.35007445217,151555.95857572064,151527.99654340703,151344.19814875105,151480.25321725052,TASK1
2026-04-28T10:30:58.446+00:00,827,56548,151356.60336692375,151586.60281736887,151174.4813531019,151230.00308632888,151576.34336666387,151548.64955528374,151364.85116062776,151500.63800819375,TASK1
2026-04-28T10:30:58.446+00:00,827,56549,151375.91527413312,151605.91472457824,151193.7932603113,151249.31499353828,151595.3870529398,151568.2296834266,151384.16306783713,151519.68169446968,TASK1
2026-04-28T10:30:58.446+00:00,827,56550,151374.64122469918,151604.6406751443,151192.2509899439,151248.3091650378,151595.3870529398,151568.49790436006,151383.96190213703,151519.94991540312,TASK1
2026-04-28T10:30:58.446+00:00,827,56551,151359.41968672513,151589.41913717022,151177.0294519698,151232.81940613026,151580.9701777661,151553.81280825293,151369.2768060299,151505.264819296,TASK1
2026-04-28T10:30:58.446+00:00,827,56552,151352.78121862188,151582.24422720008,151170.1227629331,151225.91271709357,151572.18594219518,151545.02857268197,151360.76079139244,151496.48058372506,TASK1
2026-04-28T10:30:58.446+00:00,827,56553,151373.16600956512,151602.89723907676,151191.0439957433,151246.2975080368,151592.57073313842,151565.68158455868,151381.14558233568,151517.40181653522,TASK1
2026-04-28T10:30:58.446+00:00,827,56554,151394.35546330875,151623.81847188695,151211.96522855345,151267.21874084696,151613.76018688205,151586.8710383023,151402.3350360793,151538.3230493454,TASK1
2026-04-28T10:30:58.446+00:00,827,56555,151386.10766960474,151615.57067818294,151203.71743484944,151259.23916807643,151605.7806141115,151578.6232445983,151394.35546330875,151530.34347657484,TASK1
2026-04-28T10:30:58.446+00:00,827,56556,151362.30306175986,151592.0342912715,151179.91282700456,151235.702781165,151581.9760062666,151554.81863675342,151370.55085546387,151506.53886872996,TASK1
2026-04-28T10:30:58.446+00:00,827,56557,151362.10189605976,151591.56490463793,151179.91282700456,151235.702781165,151581.50661963303,151554.61747105332,151370.34968976377,151506.33770302986,TASK1
2026-04-28T10:30:58.446+00:00,827,56558,151378.46337300102,151607.92638157922,151196.00608301235,151252.0642581063,151597.86809657433,151571.24716892806,151386.71116670503,151522.69917997112,TASK1
2026-04-28T10:30:58.446+00:00,827,56559,151392.1426406077,151621.60564918586,151209.95357155247,151266.0117466464,151611.54736418097,151585.19465746818,151400.65865524515,151536.9148894447,TASK1
2026-04-28T10:30:58.446+00:00,827,56560,151382.55374223637,151612.284971748,151200.63289411462,151256.42284827508,151601.95846580964,151575.60575909686,151391.06975687383,151527.3259910734,TASK1
2026-04-28T10:30:58.446+00:00,827,56561,151361.69956465956,151591.4307941712,151179.51049560437,151235.03222883135,151581.10428823286,151554.48336058657,151369.6791374301,151506.2035925631,TASK1
2026-04-28T10:30:58.446+00:00,827,56562,151359.35263149175,151589.0838610034,151177.16356243656,151232.953516597,151578.75735506503,151552.13642741877,151367.3322042623,151504.12488032877,TASK1
2026-04-28T10:30:58.446+00:00,827,56563,151375.44588749958,151605.17711701122,151193.52503937783,151249.0467726048,151594.85061107285,151568.2296834266,151383.6936812036,151520.2181363366,TASK1
2026-04-28T10:30:58.446+00:00,827,56564,151392.8802481747,151622.61147768635,151210.95940005296,151266.48113327994,151612.284971748,151585.66404410172,151401.12804187872,151537.65249701173,TASK1
2026-04-28T10:30:58.446+00:00,827,56565,151382.21846606952,151611.68147464772,151200.2976179478,151255.81935117478,151601.62318964282,151575.00226199656,151390.19803884008,151526.99071490654,TASK1
2026-04-28T10:30:58.446+00:00,827,56566,151357.34097449077,151586.5357621355,151175.42012636902,151230.67363866256,151576.74569806407,151549.85654948434,151365.3205472613,151502.1132233278,TASK1
2026-04-28T10:30:58.446+00:00,827,56567,151357.34097449077,151586.80398306894,151175.6883473025,151230.67363866256,151576.74569806407,151549.85654948434,151365.58876819478,151502.38144426126,TASK1
2026-04-28T10:30:58.446+00:00,827,56568,151376.11643983322,151605.57944841142,151194.1955917115,151249.449104005,151595.52116340652,151568.63201482678,151384.09601260378,151521.1569096037,TASK1
2026-04-28T10:30:58.446+00:00,827,56569,151395.96478890954,151625.42779748773,151214.04394078781,151269.29745308132,151615.36951248284,151588.4803639031,151404.21258261355,151541.00525868003,TASK1
2026-04-28T10:30:58.446+00:00,827,56570,151387.985216139,151617.71644565064,151206.33258895073,151261.58610124423,151607.65816064575,151580.769012066,151396.50123077648,151533.29390684294,TASK1
2026-04-28T10:30:58.446+00:00,827,56571,151366.05815482835,151595.78938434,151184.40552764008,151239.65903993358,151585.7310993351,151558.5737298219,151374.5741694658,151511.3668455323,TASK1
2026-04-28T10:30:58.446+00:00,827,56572,151366.86281762875,151596.3258262069,151184.941969507,151240.1954818005,151586.5357621355,151559.37839262228,151375.3788322662,151511.9032873992,TASK1
2026-04-28T10:30:58.446+00:00,827,56573,151385.37006203772,151615.10129154936,151203.71743484944,151258.7027262095,151605.31122747794,151578.15385796476,151394.15429760865,151530.6787527417,TASK1
2026-04-28T10:30:58.446+00:00,827,56574,151406.2912948479,151636.02252435955,151224.90688859308,151279.89217995314,151626.23246028813,151599.61153264184,151415.34375135228,151551.86820648532,TASK1
2026-04-28T10:30:58.446+00:00,827,56575,151400.1892686116,151629.92049812325,151218.53664142333,151273.79015371684,151620.13043405183,151593.2412854721,151408.97350418253,151545.49795931554,TASK1
2026-04-28T10:30:58.446+00:00,827,56576,151377.45754450056,151607.1887740122,151196.07313824573,151251.32665053924,151597.66693087423,151570.50956136105,151386.2417800715,151522.7662352045,TASK1
2026-04-28T10:30:58.749+00:00,828,56577,151378.59748346778,151608.12754727932,151196.1401934791,151252.0642581063,151598.20337274115,151570.5766165944,151386.4429457716,151522.29684857093,TASK1
2026-04-28T10:30:58.749+00:00,828,56578,151399.25049534446,151629.04878008948,151217.06142628926,151272.71726998297,151618.85638461786,151591.2296284711,151407.09595764827,151543.2180813811,TASK1
2026-04-28T10:30:58.749+00:00,828,56579,151419.90350722117,151649.97001289966,151237.98265909945,151293.9067237266,151639.50939649457,151612.15086128126,151428.01719045846,151563.8710932578,TASK1
2026-04-28T10:30:58.749+00:00,828,56580,151423.92682122314,151653.72510596813,151241.73775216792,151297.6618167951,151645.67847796422,151618.05172181746,151434.1862719281,151569.771953794,TASK1
2026-04-28T10:30:58.749+00:00,828,56581,151418.36123685376,151647.8913006653,151236.17216779856,151291.82801149227,151641.9904401291,151614.09546304887,151430.23001315954,151565.8156950254,TASK1
2026-04-28T10:30:58.749+00:00,828,56582,151393.483745275,151623.28203002003,151211.2946762198,151266.95051991352,151613.89429734877,151585.7310993351,151402.1338703792,151537.7195522451,TASK1
2026-04-28T10:30:58.749+00:00,828,56583,151406.0901291478,151635.8884138928,151224.16928102606,151279.55690378632,151625.69601842118,151597.80104134095,151414.20381238507,151550.05771518443,TASK1
2026-04-28T10:30:58.749+00:00,828,56584,151424.32915262334,151654.3956583018,151242.67652543506,151298.0641481953,151644.20326283018,151616.30828574995,151432.71105679407,151568.29673865996,TASK1
2026-04-28T10:30:58.749+00:00,828,56585,151417.42246358664,151647.22074833166,151235.5016154649,151291.1574591586,151637.2965737935,151609.40159671326,151425.80436775737,151561.39004962327,TASK1
2026-04-28T10:30:58.749+00:00,828,56586,151396.56828600983,151626.36657075485,151214.37921695464,151270.03506064834,151616.17417528323,151588.54741913648,151404.68196924712,151540.267651113,TASK1
2026-04-28T10:30:58.749+00:00,828,56587,151397.6411697437,151627.4394544887,151215.45210068848,151271.1079443822,151616.97883808363,151589.62030287032,151405.4866320475,151541.34053484685,TASK1
2026-04-28T10:30:58.749+00:00,828,56588,151416.68485601962,151646.21491983117,151234.22756603095,151289.88340972466,151635.75430342607,151608.12754727932,151424.53031832344,151560.11600018933,TASK1
2026-04-28T10:30:58.749+00:00,828,56589,151436.8014260294,151666.06326890746,151254.34413604072,151309.99997973442,151656.1390943693,151628.51233822256,151444.6468883332,151580.2325701991,TASK1
2026-04-28T10:30:58.749+00:00,828,56590,151429.35829512577,151658.8883589373,151247.43744700402,151302.82506976428,151649.23240533262,151621.3374282524,151437.47197836306,151573.05766022895,TASK1
2026-04-28T10:30:58.749+00:00,828,56591,151408.50411754896,151638.0341813605,151226.31504849377,151281.70267125402,151627.8417858889,151600.21502974213,151416.34957985277,151551.93526171867,TASK1
2026-04-28T10:30:58.749+00:00,828,56592,151410.91810595014,151640.71639069516,151228.72903689495,151284.38488058865,151630.25577429007,151602.6290181433,151418.76356825395,151554.34925011985,TASK1
2026-04-28T10:30:58.749+00:00,828,56593,151432.6440015607,151662.4422863057,151250.4549325055,151306.37899713268,151652.2498908341,151624.35491375386,151440.4894638645,151576.34336666387,TASK1
2026-04-28T10:30:58.749+00:00,828,56594,151451.41946690317,151680.94953071472,151268.9621769145,151324.88624154168,151670.7571352431,151642.86215816287,151459.53315014043,151595.11883200632,TASK1
2026-04-28T10:30:58.749+00:00,828,56595,151441.02590573145,151671.09241140992,151258.83683667623,151314.49268036996,151660.63179500483,151632.7368179246,151449.1395889687,151584.99349176808,TASK1
2026-04-28T10:30:58.749+00:00,828,56596,151416.41663508615,151645.9466988977,151234.22756603095,151289.61518879118,151635.75430342607,151607.5911054124,151424.26209738996,151560.11600018933,TASK1
2026-04-28T10:30:58.749+00:00,828,56597,151412.99681818447,151642.52688199602,151230.80774912928,151286.19537188954,151632.3344865244,151604.4395094442,151421.11050142176,151556.96440422113,TASK1
2026-04-28T10:30:58.749+00:00,828,56598,151432.0405044604,151662.1070101389,151249.8514354052,151305.5072790989,151651.6463937338,151623.8855271203,151440.42240863116,151576.20925619712,TASK1
2026-04-28T10:30:58.749+00:00,828,56599,151452.6935163371,151682.76002201557,151270.23622634844,151325.89207004214,151672.2994056105,151644.538538997,151461.07542050784,151596.5940471404,TASK1
2026-04-28T10:30:58.749+00:00,828,56600,151442.2999551654,151672.36646084386,151259.84266517672,151315.49850887043,151661.9058444388,151634.41319875876,151450.68185933612,151586.7369278356,TASK1
2026-04-28T10:30:58.749+00:00,828,56601,151420.6411147882,151650.4393995332,151238.18382479952,151294.1078894267,151640.2470040616,151612.4861374481,151429.02301895895,151565.0780874584,TASK1
2026-04-28T10:30:58.749+00:00,828,56602,151420.6411147882,151650.70762046668,151238.72026666647,151294.37611036017,151640.51522499506,151613.02257931503,151429.2912398924,151565.34630839186,TASK1
2026-04-28T10:30:58.749+00:00,828,56603,151438.61191733027,151668.9466439422,151256.69106920852,151312.34691290223,151658.7542484706,151630.9933818571,151447.26204243448,151583.5853318674,TASK1
2026-04-28T10:30:58.749+00:00,828,56604,151457.92382453964,151687.99033021813,151275.73475548445,151331.65882011162,151677.79793474652,151650.037068133,151466.3057287104,151602.6290181433,TASK1
2026-04-28T10:30:58.749+00:00,828,56605,151449.67603083563,151679.74253651412,151267.21874084696,151323.41102640762,151669.28192010903,151641.789274429,151458.0579350064,151594.3812244393,TASK1
2026-04-28T10:30:58.749+00:00,828,56606,151425.87142299075,151655.9379286692,151243.41413300208,151299.6064185627,151645.7455331976,151618.25288751756,151434.52154809496,151570.5766165944,TASK1
2026-04-28T10:30:58.749+00:00,828,56607,151426.1396439242,151656.47437053613,151243.950574869,151299.87463949618,151646.550195998,151618.78932938448,151435.05798996188,151571.1130584613,TASK1
2026-04-28T10:30:58.749+00:00,828,56608,151446.52443486746,151676.85916147937,151264.0671448788,151320.25943043942,151666.66676600775,151638.90589939427,151455.17455997164,151591.2296284711,TASK1
2026-04-28T10:30:58.749+00:00,828,56609,151468.78677234493,151699.12149895687,151286.32948235626,151342.5217679169,151688.92910348525,151661.43645780522,151477.43689744914,151613.49196594857,TASK1
2026-04-28T10:30:58.749+00:00,828,56610,151465.36695544326,151695.7016820552,151283.17788638806,151339.10195101524,151686.31394938397,151658.82130370394,151475.08996428133,151610.60859091385,TASK1
2026-04-28T10:30:58.749+00:00,828,56611,151440.75768479798,151670.82419047644,151258.03217387584,151314.2244594365,151661.97289967214,151634.21203305866,151450.21247270258,151585.99932026857,TASK1
2026-04-28T10:30:58.749+00:00,828,56612,151437.87430976325,151667.94081544172,151254.88057790764,151311.6093053352,151658.28486183702,151630.52399522354,151446.52443486746,151582.31128243342,TASK1
2026-04-28T10:30:58.749+00:00,828,56613,151458.2591007065,151688.59382731843,151275.53358978435,151332.26231721192,151678.93787371373,151651.17700710022,151467.17744674414,151602.96429431014,TASK1
2026-04-28T10:30:58.749+00:00,828,56614,151479.18033351665,151709.2468391951,151296.4548225945,151353.18355002208,151699.8591065239,151672.36646084386,151488.09867955433,151624.15374805377,TASK1
2026-04-28T10:30:58.749+00:00,828,56615,151472.54186541343,151702.6083710919,151289.81635449128,151346.2768609854,151692.9524174872,151665.4597718072,151481.46021145108,151617.51527995054,TASK1
2026-04-28T10:30:58.749+00:00,828,56616,151451.9559087701,151682.02241444855,151269.23039784795,151325.69090434205,151672.36646084386,151644.87381516382,151460.87425480774,151596.9293233072,TASK1
2026-04-28T10:30:58.749+00:00,828,56617,151450.1454174692,151679.94370221422,151267.41990654706,151323.8804130412,151670.555969543,151643.3315447964,151459.06376350689,151595.11883200632,TASK1
2026-04-28T10:30:58.749+00:00,828,56618,151472.4077549467,151702.74248155864,151289.95046495803,151346.41097145213,151693.08652795394,151666.13032414083,151481.59432191783,151617.64939041727,TASK1
2026-04-28T10:30:58.749+00:00,828,56619,151496.54763895844,151726.88236557035,151313.8221280363,151370.2826345304,151717.22641196568,151690.0019872191,151505.73420592956,151641.52105349555,TASK1
2026-04-28T10:30:58.749+00:00,828,56620,151491.25027552253,151721.316781201,151308.52476460038,151364.71705016104,151711.92904852977,151684.43640284974,151500.43684249365,151635.95546912617,TASK1
2026-04-28T10:30:58.749+00:00,828,56621,151471.2007607461,151701.26726642458,151288.47524982397,151344.66753538462,151691.87953375335,151664.38688807332,151480.11910678376,151615.90595434976,TASK1
2026-04-28T10:30:58.749+00:00,828,56622,151472.27364447995,151702.34015015844,151289.54813355784,151346.00864005194,151692.9524174872,151665.72799274063,151481.46021145108,151616.97883808363,TASK1
2026-04-28T10:30:58.749+00:00,828,56623,151495.8100313914,151725.47420566969,151313.28568616937,151369.0756403298,151715.4159206648,151687.58799881794,151503.72254892858,151639.91172789477,TASK1
2026-04-28T10:30:58.749+00:00,828,56624,151520.2181363366,151750.15053154834,151337.69379111455,151393.483745275,151739.82402561,151712.2643246966,151528.39887480723,151664.58805377342,TASK1
2026-04-28T10:30:58.749+00:00,828,56625,151524.7778922055,151754.71028741723,151342.78998885036,151398.57994301082,151746.79776988004,151718.9698480332,151535.10439814383,151671.29357711002,TASK1
2026-04-28T10:30:58.749+00:00,828,56626,151511.1656798322,151741.09807504393,151328.90955554362,151384.96773063752,151733.99022030714,151706.1622984603,151522.5650695044,151658.48602753712,TASK1
2026-04-28T10:30:58.749+00:00,828,56627,151481.99665331803,151711.92904852977,151299.74052902946,151355.79870412336,151702.13898445835,151674.57928354494,151490.98205458905,151626.36657075485,TASK1
2026-04-28T10:30:58.749+00:00,828,56628,151494.87125812427,151725.0718742695,151312.6151338357,151368.6733089296,151715.0135892646,151687.18566741774,151503.58843846185,151638.97295462765,TASK1
2026-04-28T10:30:58.749+00:00,828,56629,151519.27936306948,151749.47997921467,151337.0232387809,151393.0814138748,151739.4216942098,151711.59377236292,151527.99654340703,151663.6492805063,TASK1
2026-04-28T10:30:58.749+00:00,828,56630,151510.763348432,151740.69574364374,151328.7754450769,151384.56539923733,151731.1739005058,151702.809536792,151519.2123078361,151655.13326586882,TASK1
2026-04-28T10:30:58.749+00:00,828,56631,151486.42229872016,151716.62291486538,151304.7026162985,151360.49257045897,151707.1010717274,151678.73670801363,151495.4076999912,151630.792216157,TASK1
2026-04-28T10:30:58.749+00:00,828,56632,151485.41647021967,151715.3488654314,151303.42856686458,151359.48674195848,151705.82702229347,151677.73087951314,151494.13365055725,151629.7863876565,TASK1
2026-04-28T10:30:58.749+00:00,828,56633,151503.11905182828,151732.5150051731,151320.8629275397,151377.1893235671,151723.2613829686,151695.43346112175,151512.1044530993,151647.4889692651,TASK1
2026-04-28T10:30:58.749+00:00,828,56634,151520.28519156997,151750.2175867817,151337.76084634793,151394.35546330875,151740.42752271026,151712.5996008634,151529.53881377444,151664.92332994024,TASK1
2026-04-28T10:30:58.749+00:00,828,56635,151511.7691769325,151741.9697930777,151329.24483171044,151385.8394486713,151731.64328713933,151703.81536529248,151520.75457820352,151656.4073153028,TASK1
2026-04-28T10:30:58.749+00:00,828,56636,151487.15990628718,151716.82408056548,151304.3673401317,151360.69373615907,151706.4975746271,151678.66965278026,151495.6088656913,151631.26160279056,TASK1
2026-04-28T10:30:58.749+00:00,828,56637,151481.86254285128,151711.79493806302,151299.6064185627,151355.66459365663,151701.46843212468,151673.64051027782,151490.31150225538,151626.23246028813,TASK1
2026-04-28T10:30:58.749+00:00,828,56638,151496.34647325834,151726.27886847008,151314.3585699032,151370.4167449971,151715.9523625317,151688.39266161833,151505.0636535959,151640.9846116286,TASK1
2026-04-28T10:30:58.749+00:00,828,56639,151516.4630432681,151746.39543847984,151334.20691897953,151390.5333150069,151736.0689325415,151708.5092316281,151524.9120026722,151660.56473977148,TASK1
2026-04-28T10:30:58.749+00:00,828,56640,151506.87414489678,151737.074761042,151324.88624154168,151380.94441663558,151726.74825510362,151699.18855419024,151515.3231043009,151651.2440623336,TASK1
2026-04-28T10:30:58.749+00:00,828,56641,151481.99665331803,151712.4654903967,151300.0087499629,151356.06692505683,151701.6025425914,151674.31106261146,151490.98205458905,151626.90301262177,TASK1
2026-04-28T10:30:58.749+00:00,828,56642,151478.84505734983,151709.045673495,151296.58893306126,151353.18355002208,151698.4509466232,151670.89124570982,151487.83045862085,151623.48319572012,TASK1
2026-04-28T10:30:58.749+00:00,828,56643,151495.47475522457,151725.4071504363,151313.218630936,151369.81324789685,151715.08064449797,151687.78916451804,151504.4601564956,151640.11289359487,TASK1
2026-04-28T10:30:58.749+00:00,828,56644,151514.25022056702,151744.18261577876,151331.99409627845,151388.32049230582,151733.85610984042,151706.56462986048,151522.9674009046,151658.62013800384,TASK1
2026-04-28T10:30:58.749+00:00,828,56645,151506.8070896634,151737.00770580862,151324.55096537483,151381.14558233568,151726.4129789368,151699.12149895687,151515.52427000098,151651.17700710022,TASK1
2026-04-28T10:30:58.749+00:00,828,56646,151483.80714461888,151714.0077607641,151301.28279939687,151357.8774163577,151703.41303389228,151676.12155391235,151492.256104023,151627.90884112226,TASK1
2026-04-28T10:30:58.749+00:00,828,56647,151483.80714461888,151714.0077607641,151301.28279939687,151358.14563729116,151703.41303389228,151676.12155391235,151492.256104023,151628.17706205574,TASK1
2026-04-28T10:30:58.749+00:00,828,56648,151507.4105867637,151737.87942384236,151325.15446247513,151381.74907943598,151727.0164760371,151699.72499605716,151515.8595461678,151651.78050420052,TASK1
2026-04-28T10:30:58.749+00:00,828,56649,151531.0140289085,151761.75108692065,151348.75790461994,151405.35252158076,151750.88813911536,151723.59665913542,151539.46298831262,151675.6521672788,TASK1
2026-04-28T10:30:58.749+00:00,828,56650,151525.9178311727,151755.9172816178,151343.59465165075,151399.11638487774,151745.85899661292,151718.1651852328,151534.29973534343,151670.22069337615,TASK1
2026-04-28T10:30:58.749+00:00,828,56651,151503.4543279951,151733.45377844022,151321.39936940663,151376.9211026336,151723.39549343532,151695.7016820552,151511.83623216586,151647.4889692651,TASK1
2026-04-28T10:30:58.749+00:00,828,56652,151500.57095296038,151730.30218247202,151318.5159943719,151374.0377275989,151720.24389746712,151692.550086087,151508.68463619766,151644.3373732969,TASK1
2026-04-28T10:30:58.749+00:00,828,56653,151522.29684857093,151751.75985714913,151339.973669049,151395.495402276,151741.70157214423,151714.27598169757,151530.14231087474,151666.06326890746,TASK1
2026-04-28T10:30:58.749+00:00,828,56654,151545.09562791535,151774.55863649352,151362.50422745995,151418.29418162038,151764.50035148865,151736.80654010852,151552.67286928569,151688.86204825187,TASK1
2026-04-28T10:30:58.749+00:00,828,56655,151541.94403194715,151771.6752614588,151359.08441055828,151415.41080658566,151762.15341832084,151734.4596069407,151550.59415705135,151686.51511508407,TASK1
2026-04-28T10:30:58.749+00:00,828,56656,151521.89451717073,151751.35752574893,151339.30311671534,151395.36129180924,151742.3721244779,151715.2147549647,151531.0810841419,151667.0020421746,TASK1
2026-04-28T10:30:58.749+00:00,828,56657,151513.64672346672,151743.10973204492,151331.05532301133,151387.3817190387,151733.05144704002,151705.62585659337,151521.760406704,151657.41314380328,TASK1
2026-04-28T10:30:58.749+00:00,828,56658,151531.0810841419,151760.81231365353,151348.75790461994,151405.08430064732,151750.75402864863,151723.0602172685,151539.46298831262,151675.11572541186,TASK1
2026-04-28T10:30:58.749+00:00,828,56659,151554.68452628667,151784.95219766523,151372.36134676475,151428.41952185865,151774.35747079342,151746.66365941332,151562.79820952396,151698.71916755667,TASK1
2026-04-28T10:30:58.749+00:00,828,56660,151550.19182565116,151780.7277179632,151367.8686461292,151423.92682122314,151769.8647701579,151742.43917971125,151558.30550888844,151694.22646692116,TASK1
2026-04-28T10:30:58.749+00:00,828,56661,151529.0694271409,151759.60531945294,151347.01446855243,151403.07264364633,151748.74237164765,151721.316781201,151537.45133131163,151673.37228934435,TASK1
2026-04-28T10:30:58.749+00:00,828,56662,151522.9674009046,151753.50329321664,151340.91244231613,151397.2388383435,151742.64034541135,151715.2147549647,151531.0810841419,151667.27026310805,TASK1
2026-04-28T10:30:58.749+00:00,828,56663,151541.20642438013,151771.4740957587,151358.88324485818,151415.47786181903,151760.61114795343,151733.18555750675,151549.05188668394,151685.24106565013,TASK1
2026-04-28T10:30:58.749+00:00,828,56664,151565.0780874584,151795.34575883695,151383.0231288699,151439.3495248973,151784.75103196513,151757.05722058503,151573.19177069567,151709.1127287284,TASK1
2026-04-28T10:30:58.749+00:00,828,56665,151557.36673562133,151787.3661860664,151375.04355609938,151431.10173119328,151776.7714591946,151749.34586874794,151565.48041885858,151701.4013768913,TASK1
2026-04-28T10:30:58.749+00:00,828,56666,151531.95280217563,151762.48869448766,151349.89784358715,151406.22423961453,151751.62574668237,151724.20015623572,151540.33470634636,151676.52388531255,TASK1
2026-04-28T10:30:58.749+00:00,828,56667,151525.3143340724,151755.58200545097,151343.25937548393,151399.5857715113,151745.25549951263,151717.5616881325,151533.69623824314,151669.88541720933,TASK1
2026-04-28T10:30:58.749+00:00,828,56668,151542.48047381407,151773.0163661261,151360.4255152256,151416.75191125297,151762.4216392543,151734.72782787416,151550.86237798483,151687.051556951,TASK1
2026-04-28T10:30:58.749+00:00,828,56669,151567.15679969275,151797.69269200478,151385.10184110428,151441.16001619818,151787.09796513297,151759.67237468628,151575.27048293,151711.4596618962,TASK1
2026-04-28T10:30:58.749+00:00,828,56670,151562.93231999068,151793.46821230272,151380.8773614022,151436.9355364961,151783.14170636437,151755.44789498425,151571.04600322797,151707.5034031276,TASK1
2026-04-28T10:30:58.749+00:00,828,56671,151538.59127027885,151769.12716259088,151356.26809075693,151412.59448678428,151758.53243571907,151730.83862433894,151546.43673258266,151683.16235341577,TASK1
2026-04-28T10:30:58.749+00:00,828,56672,151532.48924404255,151763.02513635458,151350.43428545407,151406.492460548,151752.69863041624,151725.0048190361,151540.60292727983,151677.06032717947,TASK1
2026-04-28T10:30:58.749+00:00,828,56673,151553.14225591926,151783.6781482313,151370.8190763973,151427.1454724247,151773.08342135948,151745.38960997935,151561.25593915654,151697.71333905618,TASK1
2026-04-28T10:30:58.749+00:00,828,56674,151577.8185817979,151808.62269504342,151395.22718134252,151451.82179830337,151797.75974723813,151770.065935858,151585.66404410172,151722.1214440014,TASK1
2026-04-28T10:30:58.749+00:00,828,56675,151570.10722996085,151800.91134320633,151387.7840504389,151444.11044646628,151790.31661633452,151762.35458402094,151577.95269226466,151714.4100921643,TASK1
2026-04-28T10:30:58.749+00:00,828,56676,151547.37550584978,151778.44784002876,151365.58876819478,151421.64694328868,151767.85311315695,151739.89108084334,151555.48918908706,151692.48303085365,TASK1
2026-04-28T10:30:59.049+00:00,829,56677,151542.61458428082,151773.4186975263,151361.09606755927,151416.88602171972,151763.09219158796,151734.8619383409,151550.72826751808,151687.72210928466,TASK1
2026-04-28T10:30:59.049+00:00,829,56678,151563.2675961575,151793.80348846954,151381.4808585025,151437.27081266296,151783.4769825312,151755.51495021762,151571.3812793948,151707.83867929445,TASK1
2026-04-28T10:30:59.049+00:00,829,56679,151590.35791043733,151820.35736088245,151408.03473091542,151464.09290600932,151810.0308549441,151782.33704356398,151598.20337274115,151734.92899357426,TASK1
2026-04-28T10:30:59.049+00:00,829,56680,151585.3287679349,151815.05999744654,151403.00558841295,151458.7955425734,151805.00171244165,151777.30790106152,151593.1742302387,151730.1680720053,TASK1
2026-04-28T10:30:59.049+00:00,829,56681,151564.6757560582,151794.20581986973,151382.55374223637,151437.87430976325,151784.34870056497,151757.05722058503,151572.78943929548,151708.77745256157,TASK1
2026-04-28T10:30:59.049+00:00,829,56682,151560.18305542268,151789.9813401677,151378.06104160083,151433.6498300612,151779.85599992942,151752.56451994952,151568.29673865996,151704.28475192605,TASK1
2026-04-28T10:30:59.049+00:00,829,56683,151578.4220788982,151808.22036364322,151396.3000650764,151451.88885353672,151798.09502340495,151770.80354342505,151586.26754120202,151722.52377540158,TASK1
2026-04-28T10:30:59.049+00:00,829,56684,151601.75730010954,151831.82380578804,151419.63528628772,151475.22407474805,151821.96668648324,151794.40698556983,151610.1392042803,151746.12721754637,TASK1
2026-04-28T10:30:59.049+00:00,829,56685,151606.31705597843,151836.11534072345,151423.92682122314,151479.51560968347,151827.86754701944,151800.30784610604,151616.04006481648,151752.02807808257,TASK1
2026-04-28T10:30:59.049+00:00,829,56686,151592.70484360514,151822.23490741669,151410.31460884985,151465.63517637673,151815.05999744654,151787.50029653314,151603.2325152436,151739.48874944315,TASK1
2026-04-28T10:30:59.049+00:00,829,56687,151572.38710789528,151801.91717170682,151390.26509407343,151445.58566160031,151792.59649426898,151764.7685724221,151580.769012066,151717.02524626558,TASK1
2026-04-28T10:30:59.049+00:00,829,56688,151588.74858483658,151818.54686958157,151406.62657101473,151462.21535947509,151808.68975027677,151781.1300493634,151596.86226807383,151733.38672320684,TASK1
2026-04-28T10:30:59.049+00:00,829,56689,151609.9380385802,151839.46810239175,151427.81602475836,151483.13659228524,151829.8792040204,151802.05128217355,151618.05172181746,151754.30795601703,TASK1
2026-04-28T10:30:59.049+00:00,829,56690,151602.22668674312,151831.75675055466,151420.10467292127,151475.1570195147,151821.89963124986,151794.071709403,151610.3403699804,151746.59660417994,TASK1
2026-04-28T10:30:59.049+00:00,829,56691,151578.15385796476,151807.41570084283,151395.495402276,151450.81596980288,151797.55858153803,151769.73065969118,151585.7310993351,151722.52377540158,TASK1
2026-04-28T10:30:59.049+00:00,829,56692,151571.78361079498,151800.7772327396,151388.85693417274,151444.4457226331,151790.9201134348,151763.36041252143,151579.36085216532,151716.1535282318,TASK1
2026-04-28T10:30:59.049+00:00,829,56693,151588.6815296032,151817.94337248127,151405.75485298096,151461.6118623748,151807.81803224303,151780.25833132962,151596.526991907,151733.05144704002,TASK1
2026-04-28T10:30:59.049+00:00,829,56694,151612.82141361493,151842.083256493,151429.62651605924,151485.48352545305,151831.68969532129,151804.1299944079,151620.66687591875,151756.92311011828,TASK1
2026-04-28T10:30:59.049+00:00,829,56695,151607.52405017902,151836.7858930571,151424.32915262334,151480.18616201714,151826.39233188538,151798.832630972,151615.36951248284,151751.08930481545,TASK1
2026-04-28T10:30:59.049+00:00,829,56696,151584.79232606798,151814.05416894605,151401.5974285123,151457.72265883954,151803.9288287078,151776.3691277944,151592.6377883718,151728.62580163789,TASK1
2026-04-28T10:30:59.049+00:00,829,56697,151581.90895103323,151811.70723577825,151398.982274411,151455.37572567174,151801.31367460653,151773.75397369315,151590.0226342705,151726.27886847008,TASK1
2026-04-28T10:30:59.049+00:00,829,56698,151602.56196290994,151832.36024765496,151419.90350722117,151476.02873754845,151822.23490741669,151794.6752065033,151610.94386708067,151746.93188034676,TASK1
2026-04-28T10:30:59.049+00:00,829,56699,151627.77473065554,151857.30479446708,151444.57983309982,151500.7050634271,151847.1794542288,151819.35153238196,151635.62019295935,151771.6082062254,TASK1
2026-04-28T10:30:59.049+00:00,829,56700,151623.01380908655,151852.5438728981,151439.81891153086,151495.94414185814,151842.41853265985,151814.85883174645,151630.85927139036,151766.84728465645,TASK1
2026-04-28T10:30:59.049+00:00,829,56701,151602.96429431014,151832.49435812168,151419.76939675445,151475.89462708173,151822.36901788344,151794.80931697003,151611.07797754742,151747.0659908135,TASK1
2026-04-28T10:30:59.049+00:00,829,56702,151600.41619544223,151829.74509355368,151418.22712638704,151473.61474914727,151819.95502948225,151792.3282733355,151608.73104437962,151744.45083671223,TASK1
2026-04-28T10:30:59.049+00:00,829,56703,151618.11877705084,151847.4476751623,151435.66148706217,151491.31733075588,151837.3893901574,151810.0308549441,151626.16540505475,151761.88519738737,TASK1
2026-04-28T10:30:59.049+00:00,829,56704,151637.69890519368,151867.2960242386,151455.241615205,151510.89745889872,151856.7012973668,151829.61098308695,151645.7455331976,151781.4653255302,TASK1
2026-04-28T10:30:59.049+00:00,829,56705,151631.06043709046,151860.3893352019,151448.6031471018,151504.2589907955,151850.06282926357,151822.97251498373,151639.10706509437,151774.826857427,TASK1
2026-04-28T10:30:59.049+00:00,829,56706,151608.59693391286,151837.9258320243,151426.40786485767,151482.06370855137,151827.86754701944,151800.50901180613,151616.91178285025,151752.36335424942,TASK1
2026-04-28T10:30:59.049+00:00,829,56707,151601.95846580964,151831.55558485456,151419.76939675445,151475.42524044815,151821.22907891622,151793.8705437029,151610.27331474703,151745.72488614617,TASK1
2026-04-28T10:30:59.049+00:00,829,56708,151618.31994275094,151848.45350366278,151436.3990946292,151492.0549383229,151837.85877679096,151810.50024157765,151626.6347916883,151762.35458402094,TASK1
2026-04-28T10:30:59.049+00:00,829,56709,151639.50939649457,151869.6429574064,151457.32032743935,151512.97617113308,151859.0482305346,151831.42147438784,151647.82424543193,151783.2758168311,TASK1
2026-04-28T10:30:59.049+00:00,829,56710,151633.1391493248,151863.27271023663,151450.9500802696,151506.6059239633,151852.67798336482,151825.05122721806,151641.72221919565,151776.90556966132,TASK1
2026-04-28T10:30:59.049+00:00,829,56711,151612.01675081454,151842.41853265985,151430.0959026928,151485.75174638652,151831.55558485456,151804.19704964125,151620.59982068537,151755.78317115107,TASK1
2026-04-28T10:30:59.049+00:00,829,56712,151606.71938737863,151837.12116922394,151424.79853925688,151480.72260388406,151825.99000048518,151799.16790713882,151615.57067818294,151750.48580771516,TASK1
2026-04-28T10:30:59.049+00:00,829,56713,151625.22663178763,151855.091971766,151443.0375627324,151498.69340642614,151844.2290239607,151817.40693061435,151633.80970165847,151768.7248311907,TASK1
2026-04-28T10:30:59.049+00:00,829,56714,151649.36651579937,151879.5000767112,151466.9092258107,151522.5650695044,151868.36890797244,151841.54681462608,151657.68136473672,151792.86471520242,TASK1
2026-04-28T10:30:59.049+00:00,829,56715,151659.02246940404,151888.88780938243,151476.29695848192,151532.48924404255,151879.90240811137,151853.08031476501,151669.21486487566,151804.39821534135,TASK1
2026-04-28T10:30:59.049+00:00,829,56716,151648.8971291658,151879.03069007763,151466.43983917712,151522.63212473778,151870.849951607,151843.4914163937,151659.8941874378,151795.0775379035,TASK1
2026-04-28T10:30:59.049+00:00,829,56717,151627.2382887886,151857.10362876698,151444.78099879992,151500.7050634271,151846.50890189517,151819.41858761534,151635.82135865945,151770.73648819167,TASK1
2026-04-28T10:30:59.049+00:00,829,56718,151645.7455331976,151875.87909410943,151463.28824320892,151519.2123078361,151865.28436723762,151837.9258320243,151654.32860306842,151789.24373260068,TASK1
2026-04-28T10:30:59.049+00:00,829,56719,151669.08075440893,151899.48253625425,151486.62346442026,151542.81574998092,151888.61958844896,151861.26105323568,151677.66382427976,151812.57895381202,TASK1
2026-04-28T10:30:59.049+00:00,829,56720,151664.0516119065,151894.45339375178,151481.59432191783,151537.518386545,151883.32222501305,151856.5001316667,151672.63468177733,151807.54981130955,TASK1
2026-04-28T10:30:59.049+00:00,829,56721,151643.46565526316,151874.13565804192,151461.27658620794,151516.93242990167,151863.0044893032,151835.91417502335,151652.31694606747,151787.2320755997,TASK1
2026-04-28T10:30:59.049+00:00,829,56722,151637.0954080934,151867.76541087215,151455.17455997164,151510.83040366537,151856.9024630669,151829.81214878705,151646.4831407646,151781.39827029686,TASK1
2026-04-28T10:30:59.049+00:00,829,56723,151654.26154783508,151884.66332968036,151472.34069971333,151527.99654340703,151873.8003818751,151846.71006759527,151663.38105957283,151798.29618910505,TASK1
2026-04-28T10:30:59.049+00:00,829,56724,151674.91455971176,151905.0481206236,151493.26193252348,151548.64955528374,151894.18517281834,151867.0948585385,151683.76585051607,151818.68098004832,TASK1
2026-04-28T10:30:59.049+00:00,829,56725,151668.81253347546,151898.67787345385,151487.15990628718,151542.27930811397,151888.08314658204,151860.72461136873,151677.66382427976,151812.57895381202,TASK1
2026-04-28T10:30:59.049+00:00,829,56726,151646.3490302979,151876.21437027626,151464.42818217614,151519.54758400292,151865.351422471,151838.26110819116,151655.2003211022,151789.84722970097,TASK1
2026-04-28T10:30:59.049+00:00,829,56727,151640.9846116286,151870.31350974005,151458.3932111732,151513.84788916682,151860.1881695018,151832.89668952188,151648.8971291658,151784.54986626506,TASK1
2026-04-28T10:30:59.049+00:00,829,56728,151658.41897230374,151888.01609134866,151476.09579278182,151531.55047077543,151877.89075111042,151850.5992711305,151666.5997107744,151802.52066880712,TASK1
2026-04-28T10:30:59.049+00:00,829,56729,151680.41308884777,151910.0102078927,151497.82168839237,151553.54458731945,151899.88486765444,151872.5933876745,151688.59382731843,151824.7830062846,TASK1
2026-04-28T10:30:59.049+00:00,829,56730,151679.94370221422,151909.27260032567,151496.81585989188,151552.53875881896,151900.68953045484,151873.12982954143,151688.86204825187,151825.58766908498,TASK1
2026-04-28T10:30:59.049+00:00,829,56731,151663.91750143975,151893.2463995512,151480.78965911744,151536.51255804452,151885.46799248076,151857.90829156738,151673.90873121127,151810.09791017746,TASK1
2026-04-28T10:30:59.049+00:00,829,56732,151644.1362075968,151874.0015475752,151461.5448071414,151517.2677060685,151863.80915210358,151836.51767212365,151652.51811176757,151788.70729073373,TASK1
2026-04-28T10:30:59.049+00:00,829,56733,151659.42480080423,151889.02191984915,151476.56517941537,151532.55629927592,151878.82952437754,151851.80626533108,151667.27026310805,151803.7276630077,TASK1
2026-04-28T10:30:59.052+00:00,829,56734,151681.95535921518,151911.01603639318,151498.82751689287,151554.81863675342,151901.091861855,151874.06860280855,151689.53260058555,151825.99000048518,TASK1
2026-04-28T10:30:59.052+00:00,829,56735,151676.38977484583,151905.4504520238,151493.26193252348,151549.25305238404,151895.52627748565,151868.23479750572,151683.96701621616,151820.69263704927,TASK1
2026-04-28T10:30:59.052+00:00,829,56736,151656.87670193633,151885.93737911433,151473.74885961402,151529.4717585411,151875.7449836427,151848.72172459622,151664.72216424014,151801.1795641398,TASK1
2026-04-28T10:30:59.052+00:00,829,56737,151652.92044316774,151882.2493412792,151469.79260084542,151525.78372070598,151871.78872487412,151844.76546582766,151660.76590547155,151797.2233053712,TASK1
2026-04-28T10:30:59.052+00:00,829,56738,151669.28192010903,151898.87903915395,151486.69051965364,151542.41341858072,151888.41842274886,151861.66338463585,151677.39560334632,151814.12122417943,TASK1
2026-04-28T10:30:59.052+00:00,829,56739,151691.54425758653,151921.14137663142,151508.9528571311,151564.6757560582,151911.21720209328,151883.92572211334,151699.6579408238,151836.11534072345,TASK1
2026-04-28T10:30:59.052+00:00,829,56740,151686.51511508407,151915.8440131955,151503.38727276176,151559.64661355576,151905.6516177239,151878.36013774396,151694.36057738788,151831.086198221,TASK1
2026-04-28T10:30:59.052+00:00,829,56741,151664.58805377342,151893.91695188486,151481.46021145108,151537.7195522451,151883.45633547977,151856.4330764333,151672.16529514376,151809.15913691034,TASK1
2026-04-28T10:30:59.052+00:00,829,56742,151657.9495856702,151887.54670471512,151475.08996428133,151531.34930507533,151876.81786737655,151849.7946083301,151665.52682704054,151802.52066880712,TASK1
2026-04-28T10:30:59.052+00:00,829,56743,151674.04284167802,151903.37173978947,151490.91499935568,151547.17434014968,151892.91112338437,151865.8878643379,151681.62008304836,151818.34570388147,TASK1
2026-04-28T10:30:59.052+00:00,829,56744,151695.5005163551,151924.82941446654,151512.37267403278,151568.63201482678,151914.36879806148,151887.34553901502,151703.07775772546,151839.80337855857,TASK1
2026-04-28T10:30:59.052+00:00,829,56745,151690.47137385266,151919.8002719641,151507.6117524638,151563.8710932578,151909.33965555902,151882.31639651256,151698.048615223,151834.77423605614,TASK1
2026-04-28T10:30:59.052+00:00,829,56746,151668.27609160854,151897.33676878654,151485.14824928623,151541.40759008023,151886.87615238145,151860.12111426843,151675.8533329789,151812.84717474546,TASK1
2026-04-28T10:30:59.052+00:00,829,56747,151661.36940257184,151890.6983006833,151478.50978118298,151534.769121977,151880.23768427823,151853.4826461652,151668.9466439422,151806.20870664224,TASK1
2026-04-28T10:30:59.052+00:00,829,56748,151679.34020511393,151908.66910322537,151496.74880465853,151552.73992451906,151898.47670775375,151871.72166964074,151687.18566741774,151824.17950918432,TASK1
2026-04-28T10:30:59.052+00:00,829,56749,151702.4072053918,151931.4678825698,151520.08402586987,151575.80692479695,151921.8119289651,151894.78866991863,151710.52088862908,151847.51473039566,TASK1
2026-04-28T10:30:59.052+00:00,829,56750,151697.37806288936,151926.97518193428,151515.0548833674,151571.04600322797,151916.78278646266,151890.02774834965,151705.49174612665,151842.4855878932,TASK1
2026-04-28T10:30:59.052+00:00,829,56751,151675.4510015787,151905.0481206236,151493.12782205676,151549.11894191732,151894.85572515198,151867.83246610552,151683.29646388252,151820.55852658255,TASK1
2026-04-28T10:30:59.344+00:00,830,56752,151667.47142880814,151897.06854785306,151485.14824928623,151540.8711482133,151886.87615238145,151859.852893335,151675.31689111196,151812.84717474546,TASK1
2026-04-28T10:30:59.344+00:00,830,56753,151685.71045228367,151915.3075713286,151503.38727276176,151559.11017168884,151905.11517585698,151878.09191681052,151693.28769365404,151831.086198221,TASK1
2026-04-28T10:30:59.344+00:00,830,56754,151711.057330496,151940.72150477426,151528.73415097405,151584.1888289677,151930.6632197694,151903.103518856,151719.1039584999,151855.4943031662,TASK1
2026-04-28T10:30:59.344+00:00,830,56755,151706.83285079396,151936.49702507223,151524.509671272,151580.2325701991,151926.7069610008,151898.87903915395,151714.87947879787,151851.00160253068,TASK1
2026-04-28T10:30:59.344+00:00,830,56756,151684.90578948328,151914.83818469502,151502.8508308948,151558.30550888844,151905.0481206236,151877.22019877675,151693.22063842067,151829.34276215348,TASK1
2026-04-28T10:30:59.344+00:00,830,56757,151677.73087951314,151907.93149565835,151495.67592092467,151550.86237798483,151898.14143158693,151870.0452888066,151686.04572845052,151822.16785218334,TASK1
2026-04-28T10:30:59.344+00:00,830,56758,151694.89701925483,151925.09763540002,151512.57383973288,151568.0285177265,151915.03935039512,151886.94320761482,151703.2118681922,151839.333991925,TASK1
2026-04-28T10:30:59.344+00:00,830,56759,151717.69579859922,151947.35997287752,151535.10439814383,151590.55907613743,151937.5699088061,151909.2055450923,151725.74242660313,151861.86455033594,TASK1
2026-04-28T10:30:59.344+00:00,830,56760,151726.0106475366,151955.67482181487,151543.15102614774,151598.87392507482,151947.7623042777,151919.6661614974,151736.20304300822,151872.05694580756,TASK1
2026-04-28T10:30:59.344+00:00,830,56761,151721.24972596762,151951.18212117936,151538.65832551222,151594.3812244393,151944.6107083095,151916.78278646266,151733.3196679735,151868.63712890592,TASK1
2026-04-28T10:30:59.344+00:00,830,56762,151692.88536225384,151922.5495365321,151510.29396179842,151565.48041885858,151913.02769339416,151884.93155061384,151701.46843212468,151837.05411399057,TASK1
2026-04-28T10:30:59.344+00:00,830,56763,151708.17395546127,151937.83812973954,151525.58255500588,151581.0372329995,151928.04806566812,151899.9519228878,151716.48880439863,151852.342707198,TASK1
2026-04-28T10:30:59.344+00:00,830,56764,151731.24095573914,151960.90513001743,151548.64955528374,151604.10423327735,151950.57862407906,151922.7507022322,151739.55580467652,151875.14148654242,TASK1
2026-04-28T10:30:59.344+00:00,830,56765,151727.28469697054,151956.94887124884,151544.69329651515,151600.14797450876,151946.89058624394,151918.52622253017,151735.59954590793,151870.91700684035,TASK1
2026-04-28T10:30:59.344+00:00,830,56766,151705.62585659337,151935.0218099382,151522.7662352045,151578.2209131981,151925.23174586674,151896.86738215297,151713.67248459728,151848.9899455297,TASK1
2026-04-28T10:30:59.344+00:00,830,56767,151698.18272568975,151927.84689996802,151515.59132523433,151570.7777822945,151917.78861496312,151889.69247218283,151706.22935369366,151841.81503555956,TASK1
2026-04-28T10:30:59.344+00:00,830,56768,151718.83573756643,151948.49991184473,151535.9761161776,151591.16257323773,151938.17340590636,151910.07726312606,151726.6141446369,151862.46804743624,TASK1
2026-04-28T10:30:59.344+00:00,830,56769,151741.3662959774,151970.7622493222,151558.23845365507,151613.42491071523,151960.70396431733,151932.33960060353,151749.14470304784,151884.73038491374,TASK1
2026-04-28T10:30:59.344+00:00,830,56770,151735.53249067455,151964.6602230859,151552.13642741877,151607.5911054124,151954.60193808103,151926.5057953007,151743.31089774502,151878.36013774396,TASK1
2026-04-28T10:30:59.344+00:00,830,56771,151714.94653403122,151944.07426644256,151531.8186917089,151587.2733697025,151934.28420237114,151905.91983865737,151722.99316203513,151858.31062296758,TASK1
2026-04-28T10:30:59.344+00:00,830,56772,151707.23518219416,151936.63113553895,151524.3755608053,151579.8302387989,151926.84107146753,151898.47670775375,151715.5500311315,151850.86749206393,TASK1
2026-04-28T10:30:59.344+00:00,830,56773,151723.8648800689,151953.26083341372,151541.00525868003,151596.1917157402,151943.47076934227,151915.1064056285,151731.9115080728,151867.4971899387,TASK1
2026-04-28T10:30:59.344+00:00,830,56774,151746.39543847984,151976.0596127581,151563.80403802445,151618.45405321766,151966.2695486867,151937.90518497291,151754.44206648375,151890.02774834965,TASK1
2026-04-28T10:30:59.344+00:00,830,56775,151742.1709587778,151971.5669121226,151559.31133738894,151613.96135258215,151961.77684805117,151933.4124843374,151749.94936584824,151885.53504771413,TASK1
2026-04-28T10:30:59.344+00:00,830,56776,151720.24389746712,151949.63985081195,151537.38427607826,151592.30251220494,151939.84978674052,151911.7536439602,151728.29052547103,151863.87620733693,TASK1
2026-04-28T10:30:59.344+00:00,830,56777,151711.72788282967,151941.12383617446,151528.8682614408,151584.05471850093,151931.33377210304,151902.96940838927,151719.77451083358,151855.36019269947,TASK1
2026-04-28T10:30:59.344+00:00,830,56778,151728.89402257133,151958.28997591615,151545.76618024902,151601.4890791761,151948.49991184473,151920.4037690644,151736.94065057524,151872.52633244114,TASK1
2026-04-28T10:30:59.344+00:00,830,56779,151752.22924378267,151981.89341806096,151568.83318052688,151624.55607945396,151971.5669121226,151943.73899027574,151760.00765085313,151895.86155365247,TASK1
2026-04-28T10:30:59.344+00:00,830,56780,151747.73654314716,151977.6689383589,151564.60870082484,151620.06337881845,151967.07421148708,151938.97806870675,151755.78317115107,151891.63707395043,TASK1
2026-04-28T10:30:59.344+00:00,830,56781,151726.6141446369,151956.54653984864,151543.48630231456,151599.20920124164,151946.22003391027,151918.12389112997,151734.92899357426,151870.78289637362,TASK1
2026-04-28T10:30:59.344+00:00,830,56782,151718.3663509329,151948.03052521116,151535.23850861055,151590.96140753763,151937.97224020626,151909.87609742596,151726.4129789368,151862.53510266962,TASK1
2026-04-28T10:30:59.344+00:00,830,56783,151735.53249067455,151965.19666495285,151552.13642741877,151608.12754727932,151954.87015901448,151926.77401623418,151743.57911867846,151879.43302147783,TASK1
2026-04-28T10:30:59.344+00:00,830,56784,151758.33127001897,151987.99544429727,151575.20342769666,151630.92632662374,151977.93715929237,151949.84101651204,151766.37789802288,151902.5000217557,TASK1
2026-04-28T10:30:59.344+00:00,830,56785,151757.12427581838,151986.7213948633,151574.7340410631,151630.1887190567,151977.0654412586,151949.37162987847,151765.64029045586,151901.62830372195,TASK1
2026-04-28T10:30:59.344+00:00,830,56786,151737.87942384236,151967.74476382075,151555.48918908706,151611.21208801414,151957.55236834913,151930.12677790245,151746.39543847984,151882.65167267938,TASK1
2026-04-28T10:30:59.344+00:00,830,56787,151728.82696733798,151958.96052824982,151546.70495351613,151602.15963150974,151948.76813277818,151921.07432139807,151737.34298197544,151873.599216175,TASK1
2026-04-28T10:30:59.344+00:00,830,56788,151746.26132801312,151976.12666799148,151564.13931419127,151619.59399218488,151966.20249345334,151938.24046113974,151754.77734265057,151891.03357685014,TASK1
2026-04-28T10:30:59.344+00:00,830,56789,151770.93765389177,152000.80299387014,151588.54741913648,151644.27031806356,151990.61059839852,151962.9167870184,151779.45366852926,151915.44168179532,TASK1
2026-04-28T10:30:59.344+00:00,830,56790,151770.4682672582,152000.60182817004,151588.0780325029,151644.06915236346,151991.4152611989,151963.45322888534,151779.7218894627,151915.97812366227,TASK1
2026-04-28T10:30:59.344+00:00,830,56791,151749.88231061486,151980.0158715267,151567.76029679304,151623.48319572012,151971.09752548905,151943.13549317545,151759.40415375284,151895.92860888585,TASK1
2026-04-28T10:30:59.344+00:00,830,56792,151737.87942384236,151968.28120568767,151555.75741002054,151611.48030894762,151958.28997591615,151930.32794360255,151746.59660417994,151883.12105931295,TASK1
2026-04-28T10:30:59.344+00:00,830,56793,151754.77734265057,151985.1791244959,151572.65532882875,151628.11000682236,151974.9196737909,151947.22586241076,151763.49452298816,151899.7507571877,TASK1
2026-04-28T10:30:59.344+00:00,830,56794,151776.50323826115,152007.1732410399,151594.64944537275,151650.37234429983,151997.1820112684,151969.2199789548,151785.48863953218,151921.74487373172,TASK1
2026-04-28T10:30:59.344+00:00,830,56795,151771.74231669217,152002.14409853745,151589.8885238038,151645.61142273087,151992.4210896994,151964.19083645236,151780.45949702972,151916.4475102958,TASK1
2026-04-28T10:30:59.344+00:00,830,56796,151751.15636004883,151981.55814189411,151569.30256716046,151625.02546608754,151971.83513305607,151943.87310074246,151759.87354038638,151895.86155365247,TASK1
2026-04-28T10:30:59.344+00:00,830,56797,151742.90856634482,151973.3103481901,151561.05477345645,151616.50945145005,151963.31911841859,151935.62530703846,151751.35752574893,151887.61375994846,TASK1
2026-04-28T10:30:59.344+00:00,830,56798,151759.53826421956,151990.20826699832,151577.6844713312,151633.40737025827,151980.2170372268,151952.52322584667,151768.25544455714,151904.51167875668,TASK1
2026-04-28T10:30:59.344+00:00,830,56799,151782.8734854309,152013.54348820966,151601.01969254253,151656.7425914696,152003.55225843814,151975.858447058,151791.59066576848,151927.57867903454,TASK1
2026-04-28T10:30:59.344+00:00,830,56800,151779.45366852926,152010.123671308,151597.59987564085,151653.32277456793,152000.1324415365,151972.43863015636,151788.1708488668,151924.1588621329,TASK1
2026-04-28T10:30:59.344+00:00,830,56801,151759.67237468628,151990.0741565316,151577.8185817979,151633.80970165847,151980.35114769352,151952.65733631342,151768.38955502387,151904.37756828996,TASK1
2026-04-28T10:30:59.344+00:00,830,56802,151753.03390658306,151983.1674674949,151571.1801136947,151626.90301262177,151973.44445865686,151946.01886821017,151761.48286598717,151897.47087925326,TASK1
2026-04-28T10:30:59.344+00:00,830,56803,151771.54115099207,152001.6747119039,151589.6873581037,151645.1420360973,151991.95170306583,151964.52611261918,151779.99011039617,151915.97812366227,TASK1
2026-04-28T10:30:59.344+00:00,830,56804,151796.75391873764,152026.88747964948,151614.63190491582,151670.3548038429,152016.89624987796,151989.4706594313,151805.20287814175,151941.4591123413,TASK1
2026-04-28T10:30:59.344+00:00,830,56805,151802.11833740692,152032.52011925224,151620.53276545202,151676.2556643791,152023.86999414803,151996.44440370135,151812.17662241182,151948.43285661135,TASK1
2026-04-28T10:30:59.344+00:00,830,56806,151784.8851424319,152014.4822614768,151602.56196290994,151658.41897230374,152005.8321363726,151978.20538022582,151794.3399303365,151930.2608883692,TASK1
2026-04-28T10:30:59.344+00:00,830,56807,151768.3224997905,151997.9196188354,151585.99932026857,151641.5881087289,151987.9283890639,151960.56985385058,151776.9726248947,151912.3571410605,TASK1
2026-04-28T10:30:59.344+00:00,830,56808,151786.56152326602,152016.15864231094,151603.97012281063,151659.82713220443,152006.16741253942,151978.8088773261,151794.94342743678,151930.59616453602,TASK1
2026-04-28T10:30:59.344+00:00,830,56809,151811.50607007815,152041.10318912307,151628.91466962275,151684.77167901656,152031.11195935155,152003.75342413824,151819.88797424888,151955.54071134815,TASK1
2026-04-28T10:30:59.344+00:00,830,56810,151807.54981130955,152036.878709421,151624.6901899207,151680.54719931452,152027.15570058295,151999.5289444362,151815.66349454684,151951.58445257955,TASK1
2026-04-28T10:30:59.344+00:00,830,56811,151784.2816453316,152013.07410157612,151600.8855820758,151656.47437053613,152003.61931367152,151975.7243365913,151791.85888670193,151927.77984473464,TASK1
2026-04-28T10:30:59.344+00:00,830,56812,151770.93765389177,152000.26655200322,151587.80981156943,151643.66682096326,151990.54354316517,151962.64856608494,151778.78311619558,151914.97229516177,TASK1
2026-04-28T10:30:59.344+00:00,830,56813,151785.4215842988,152014.4822614768,151602.02552104302,151657.88253043682,152004.75925263873,151977.13249649198,151792.99882566914,151929.18800463533,TASK1
2026-04-28T10:30:59.344+00:00,830,56814,151807.41570084283,152036.20815708736,151623.75141665357,151679.87664698085,152026.48514824928,151998.85839210253,151814.99294221317,151950.9139002459,TASK1
2026-04-28T10:30:59.344+00:00,830,56815,151803.1912211408,152032.52011925224,151620.06337881845,151675.92038821225,152022.5288894807,151994.90213333393,151811.0366834446,151946.95764147732,TASK1
2026-04-28T10:30:59.344+00:00,830,56816,151781.2641598301,152010.59305794156,151598.1363175078,151653.9933269016,152000.3336072366,151973.24329295676,151789.10962213392,151925.2988011001,TASK1
2026-04-28T10:30:59.344+00:00,830,56817,151770.60237772495,151999.66305490292,151587.4745354026,151643.5997657299,151989.94004606488,151962.58151085157,151778.7160609622,151914.63701899492,TASK1
2026-04-28T10:30:59.344+00:00,830,56818,151788.84140120048,152017.90207837845,151605.71355887814,151661.57056827194,152008.1790695404,151980.8205343271,151796.95508443774,151932.87604247045,TASK1
2026-04-28T10:30:59.344+00:00,830,56819,151814.85883174645,152043.91950892442,151631.46276849066,151687.58799881794,152033.9282791529,152006.30152300614,151822.70429405026,151958.62525208297,TASK1
2026-04-28T10:30:59.344+00:00,830,56820,151820.75969228265,152049.82036946062,151637.36362902686,151693.48885935414,152041.1702443564,152013.2752672762,151829.6780383203,151965.8672172865,TASK1
2026-04-28T10:30:59.344+00:00,830,56821,151802.31950310702,152031.64840121847,151619.19166078468,151675.0486701785,152022.7300551808,151995.10329903403,151811.50607007815,151947.69524904434,TASK1
2026-04-28T10:30:59.344+00:00,830,56822,151780.39244179637,152009.72133990782,151597.5328204075,151653.3898298013,151999.46188920282,151971.83513305607,151787.9696831667,151924.42708306637,TASK1
2026-04-28T10:30:59.344+00:00,830,56823,151797.0221396711,152026.35103778256,151614.16251828225,151669.7513067426,152016.09158707756,151988.19660999734,151804.59938104145,151941.05678094111,TASK1
2026-04-28T10:30:59.344+00:00,830,56824,151822.23490741669,152051.56380552813,151639.37528602785,151695.23229542165,152041.0361338897,152013.6775986764,151829.81214878705,151966.2695486867,TASK1
2026-04-28T10:30:59.344+00:00,830,56825,151821.49729984967,152050.2897560942,151638.10123659388,151694.22646692116,152040.0303053892,152012.67177017592,151828.80632028656,151964.99549925275,TASK1
2026-04-28T10:30:59.344+00:00,830,56826,151802.52066880712,152031.31312505165,151619.12460555133,151674.98161494514,152021.32189528013,151993.69513913334,151809.829689244,151946.01886821017,TASK1
2026-04-28T10:30:59.637+00:00,831,56827,151794.80931697003,152023.86999414803,151611.41325371424,151667.27026310805,152013.61054344304,151985.98378729628,151802.11833740692,151938.57573730656,TASK1
2026-04-28T10:30:59.637+00:00,831,56828,151815.73054978022,152044.5230060247,151632.3344865244,151688.19149591823,152034.26355531975,152006.63679917296,151822.77134928363,151958.96052824982,TASK1
2026-04-28T10:30:59.637+00:00,831,56829,151841.74798032618,152070.5404365707,151658.08369613692,151714.2089264642,152060.2809858657,152032.65422971896,151848.7887798296,151984.9779587958,TASK1
2026-04-28T10:30:59.637+00:00,831,56830,151841.74798032618,152070.3392708706,151658.08369613692,151714.2089264642,152060.0798201656,152032.65422971896,151848.7887798296,151984.9779587958,TASK1
2026-04-28T10:30:59.637+00:00,831,56831,151825.65472431836,152055.05067766318,151642.52688199602,151698.11567045638,152044.9253374249,152017.63385744498,151833.56724185555,151969.35408942154,TASK1
2026-04-28T10:30:59.637+00:00,831,56832,151817.40693061435,152047.07110489262,151634.81553015896,151690.4043186193,152036.94576465437,152009.65428467444,151825.85589001846,151961.37451665098,TASK1
2026-04-28T10:30:59.637+00:00,831,56833,151837.52350062414,152067.1876749024,151654.93210016872,151710.52088862908,152057.06233466414,152029.77085468423,151845.70423909478,151981.49108666077,TASK1
2026-04-28T10:30:59.637+00:00,831,56834,151861.66338463585,152091.32755891414,151679.07198418045,151734.39255170734,152081.20221867587,152053.91073869597,151869.57590217303,152005.36274973903,TASK1
2026-04-28T10:30:59.637+00:00,831,56835,151862.1998265028,152092.13222171454,151679.60842604737,151734.92899357426,152082.81154427666,152055.52006429672,151870.91700684035,152006.9720753398,TASK1
2026-04-28T10:30:59.637+00:00,831,56836,151844.56430012756,152074.76491627275,151662.2411206056,151717.82990906597,152066.51712256874,152038.95742165536,151854.62258513243,151990.40943269842,TASK1
2026-04-28T10:30:59.637+00:00,831,56837,151825.05122721806,152055.25184336328,151642.72804769612,151698.31683615647,152045.39472405848,152017.83502314507,151833.76840755565,151969.82347605508,TASK1
2026-04-28T10:30:59.637+00:00,831,56838,151838.7304948247,152068.93111096992,151656.1390943693,151711.72788282967,152058.5375497982,152030.9778488848,151846.91123329537,151983.23452272828,TASK1
2026-04-28T10:30:59.637+00:00,831,56839,151858.0424020341,152088.24301817932,151675.18278064523,151731.03979003904,152077.8494570076,152050.2897560942,151866.22314050474,152002.2782090042,TASK1
2026-04-28T10:30:59.637+00:00,831,56840,151850.86749206393,152080.79988727567,151668.0078706751,151723.8648800689,152070.67454703743,152043.11484612405,151859.0482305346,151995.3715199675,TASK1
2026-04-28T10:30:59.637+00:00,831,56841,151827.59932608597,152057.26350036424,151644.7397046971,151700.5967140909,152047.40638105947,152019.84668014606,151835.51184362316,151972.10335398954,TASK1
2026-04-28T10:30:59.637+00:00,831,56842,151815.32821838002,152045.26061359176,151632.7368179246,151688.32560638495,152035.1352733535,152007.5755724401,151823.50895685065,151959.5640253501,TASK1
2026-04-28T10:30:59.637+00:00,831,56843,151832.76257905515,152062.42675333342,151650.17117859973,151705.49174612665,152052.56963402862,152025.2781540487,151840.9433175258,151976.99838602525,TASK1
2026-04-28T10:30:59.637+00:00,831,56844,151856.9024630669,152086.56663734515,151674.04284167802,151729.63163013835,152076.4412971069,152049.14981712698,151864.81498060405,152001.138270037,TASK1
2026-04-28T10:30:59.637+00:00,831,56845,151855.091971766,152084.75614604427,151671.96412944366,151727.8211388375,152074.36258487255,152047.07110489262,151862.7362683697,151998.79133686915,TASK1
2026-04-28T10:30:59.637+00:00,831,56846,151835.31067792306,152065.2430731348,151652.4510565342,151708.03984499455,152054.5812910296,152027.55803198315,151843.22319546022,151979.0100430262,TASK1
2026-04-28T10:30:59.637+00:00,831,56847,151825.1853376848,152055.11773289653,151642.5939372294,151698.18272568975,152044.45595079137,152017.70091267835,151833.36607615545,151969.15292372144,TASK1
2026-04-28T10:30:59.637+00:00,831,56848,151844.2290239607,152074.42964010593,151661.63762350532,151716.9581910322,152063.76785800073,152036.4763780208,151852.40976243137,151988.4648309308,TASK1
2026-04-28T10:30:59.637+00:00,831,56849,151867.02780330513,152096.96019851687,151684.16818191626,151739.75697037662,152086.56663734515,152059.00693643178,151874.94032084232,152010.99538934176,TASK1
2026-04-28T10:30:59.637+00:00,831,56850,151860.12111426843,152090.05350948017,151677.26149287957,151733.1185022734,152079.92816924193,152052.36846832852,151868.03363180562,152004.35692123853,TASK1
2026-04-28T10:30:59.637+00:00,831,56851,151843.2902506936,152073.22264590533,151660.43062930473,151716.28763869853,152063.0973056671,152035.53760475368,151851.7392100977,151987.79427859717,TASK1
2026-04-28T10:30:59.637+00:00,831,56852,151834.2377941892,152064.4384103344,151651.6463937338,151707.23518219416,152054.31307009613,152026.75336918276,151842.6867535933,151979.0100430262,TASK1
2026-04-28T10:30:59.637+00:00,831,56853,151848.45350366278,152078.38589887452,151665.5938822739,151721.18267073427,152068.52877956972,152040.70085772287,151856.6342421334,151992.68931063288,TASK1
2026-04-28T10:30:59.637+00:00,831,56854,151870.98406207372,152101.18467821894,151688.12444068486,151743.98145007866,152091.32755891414,152063.4996370673,151879.16480054436,152015.21986904382,TASK1
2026-04-28T10:30:59.637+00:00,831,56855,151869.71001263976,152099.91062878497,151686.85039125092,151742.70740064472,152090.32173041365,152062.22558763332,151877.89075111042,152013.94581960986,TASK1
2026-04-28T10:30:59.637+00:00,831,56856,151850.7333815972,152081.20221867587,151668.14198114182,151723.99899053562,152071.3450993711,152043.51717752425,151859.18234100132,151994.9691885673,TASK1
2026-04-28T10:30:59.637+00:00,831,56857,151839.26693669165,152069.7357737703,151656.67553623623,151712.2643246966,152059.87865446552,152032.05073261866,151847.71589609576,151983.50274366172,TASK1
2026-04-28T10:30:59.637+00:00,831,56858,151859.71878286824,152089.38295714653,151677.12738241284,151732.64911563983,152079.65994830846,152052.30141309518,151867.8995213389,152003.75342413824,TASK1
2026-04-28T10:30:59.637+00:00,831,56859,151885.73621341423,152115.4003876925,151703.1448129588,151758.6665461858,152105.40915792098,152078.31884364114,151893.91695188486,152029.77085468423,TASK1
2026-04-28T10:30:59.637+00:00,831,56860,151883.92572211334,152113.5898963916,151701.06610072448,151756.58783395146,152103.5986666201,152076.2401314068,151892.10646058398,152027.96036338335,TASK1
2026-04-28T10:30:59.637+00:00,831,56861,151864.1444282704,152094.07682348214,151681.553027815,151737.074761042,152084.08559371062,152056.72705849732,151872.86160860796,152008.71551140732,TASK1
2026-04-28T10:30:59.637+00:00,831,56862,151852.67798336482,152082.61037857656,151670.08658290943,151725.87653706988,152072.61914880504,152045.26061359176,151861.3951637024,151997.24906650174,TASK1
2026-04-28T10:30:59.637+00:00,831,56863,151869.8441231065,152099.2400764513,151687.2527226511,151742.77445587807,152089.51706761325,152062.15853239995,151878.29308251062,152014.14698530996,TASK1
2026-04-28T10:30:59.637+00:00,831,56864,151893.98400711824,152123.37996046303,151711.12438572937,151766.64611895636,152113.3887306915,152086.03019547823,151901.8965246554,152038.01864838824,TASK1
2026-04-28T10:30:59.637+00:00,831,56865,151899.08020485405,152128.74437913232,151716.48880439863,151772.0105376256,152120.36247496158,152093.27216068175,151908.87026892547,152044.99239265829,TASK1
2026-04-28T10:30:59.637+00:00,831,56866,151887.34553901502,152117.0097132933,151704.48591762615,151760.00765085313,152109.7006928564,152082.61037857656,151898.20848682028,152034.3306105531,TASK1
2026-04-28T10:30:59.637+00:00,831,56867,151858.17651250082,152088.10890771257,151675.58511204543,151731.1068452724,152077.8494570076,152050.75914272777,151866.8936928384,152002.74759563775,TASK1
2026-04-28T10:30:59.637+00:00,831,56868,151872.3922219744,152102.05639625268,151689.53260058555,151745.05433381253,152091.79694554769,152064.4384103344,151880.84118137852,152016.42686324441,TASK1
2026-04-28T10:30:59.637+00:00,831,56869,151894.11811758496,152123.78229186323,151711.2584961961,151766.78022942308,152113.7910620917,152086.16430594496,151902.83529792255,152038.15275885497,TASK1
2026-04-28T10:30:59.637+00:00,831,56870,151890.43007974984,152119.82603309467,151707.3022374275,151763.09219158796,152109.83480332312,152082.20804717636,151898.61081822048,152034.46472101985,TASK1
2026-04-28T10:30:59.637+00:00,831,56871,151869.0394603061,152098.16719271746,151686.17983891725,151741.43335121076,152088.17596294594,152060.81742773263,151876.9519778433,152013.34232250956,TASK1
2026-04-28T10:30:59.637+00:00,831,56872,151856.5001316667,152085.89608501148,151673.90873121127,151728.89402257133,152075.90485523996,152048.2780990932,151864.9490910708,152001.0712148036,TASK1
2026-04-28T10:30:59.637+00:00,831,56873,151872.86160860796,152102.52578288625,151690.0019872191,151745.52372044607,152092.53455311473,152064.90779696795,151881.31056801206,152017.70091267835,TASK1
2026-04-28T10:30:59.637+00:00,831,56874,151898.61081822048,152128.27499249874,151715.7511968316,151771.2729300586,152118.5519836607,152090.65700658047,151907.32799855806,152043.45012229087,TASK1
2026-04-28T10:30:59.637+00:00,831,56875,151899.1472600874,152129.3478762326,151716.28763869853,151771.8093719255,152119.3566464611,152091.1934484474,151907.86444042498,152043.71834322432,TASK1
2026-04-28T10:30:59.637+00:00,831,56876,151881.51173371216,152111.4441289239,151698.6521123233,151753.90562461683,152101.45289915238,152073.82614300563,151890.4971349832,152026.08281684908,TASK1
2026-04-28T10:30:59.935+00:00,832,56877,151870.58173067353,152100.2459049518,151687.72210928466,151742.70740064472,152090.52289611375,152062.896139967,151879.2989110111,152015.15281381045,TASK1
2026-04-28T10:30:59.935+00:00,832,56878,151886.40676574787,152116.33916095961,151703.547144359,151758.80065665254,152106.61615212157,152078.98939597482,151895.12394608546,152031.24606981827,TASK1
2026-04-28T10:30:59.935+00:00,832,56879,151910.5466497596,152140.47904497135,151727.4188074373,151782.94054066428,152130.48781519983,152102.5928381196,151919.2638300972,152055.38595383,TASK1
2026-04-28T10:30:59.935+00:00,832,56880,151910.07726312606,152140.0096583378,151727.4188074373,151782.73937496418,152130.01842856628,152102.3916724195,151918.79444346362,152054.64834626298,TASK1
2026-04-28T10:30:59.935+00:00,832,56881,151891.63707395043,152121.56946916218,151708.97861826167,151764.03096485508,152111.31001845718,152083.95148324387,151900.62247522146,152036.4763780208,TASK1
2026-04-28T10:30:59.935+00:00,832,56882,151880.17062904485,152110.1030242566,151697.78039428956,151753.10096181644,152100.11179448507,152073.02148020524,151889.42425124935,152025.54637498216,TASK1
2026-04-28T10:30:59.935+00:00,832,56883,151896.26388505267,152125.6598383975,151713.6054293639,151768.65777595734,152115.93682955942,152088.84651527958,151905.2492863237,152041.63963099,TASK1
2026-04-28T10:30:59.935+00:00,832,56884,151921.74487373172,152151.14082707654,151738.8181971095,151794.1387646364,152141.14959730502,152114.05928302518,151930.73027500274,152066.8523987356,TASK1
2026-04-28T10:30:59.935+00:00,832,56885,151921.54370803162,152151.40904801,151738.34881047593,151793.9375989363,152141.14959730502,152113.8581173251,151930.2608883692,152066.6512330355,TASK1
2026-04-28T10:30:59.935+00:00,832,56886,151902.83529792255,152132.7006379009,151719.9086213003,151774.9609678937,152122.44118719592,152095.14970721598,151911.82069919357,152047.6746019929,TASK1
2026-04-28T10:30:59.935+00:00,832,56887,151891.1006320835,152120.6977511284,151708.44217639472,151763.22630205468,152110.7065213569,152083.68326231043,151900.08603335454,152035.93993615388,TASK1
2026-04-28T10:30:59.935+00:00,832,56888,151908.8032136921,152138.40033273702,151726.14475800333,151781.19710459677,152128.4091029655,152101.38584391904,151917.52039402968,152053.6425177625,TASK1
2026-04-28T10:30:59.935+00:00,832,56889,151933.27837387065,152163.34487954914,151750.75402864863,151806.81220374253,152153.35364977762,152126.0621697977,151941.79438850813,152077.91651224095,TASK1
2026-04-28T10:30:59.935+00:00,832,56890,151931.19966163632,152161.26616731478,151748.67531641427,151804.46527057473,152151.27493754326,152123.71523662988,151939.7156762738,152075.83780000661,TASK1
2026-04-28T10:30:59.935+00:00,832,56891,151909.8090421926,152139.33910600413,151726.74825510362,151782.53820926408,152129.6160971661,152101.7881753192,151918.0568358966,152053.91073869597,TASK1
2026-04-28T10:30:59.935+00:00,832,56892,151897.0014926197,152126.2633354978,151713.94070553072,151769.73065969118,152116.8085475932,152088.71240481286,151905.2492863237,152041.10318912307,TASK1
2026-04-28T10:30:59.935+00:00,832,56893,151913.36296956099,152142.62481243905,151730.30218247202,151786.36035756592,152133.17002453448,152105.3421026876,151921.610763265,152057.7328869978,TASK1
2026-04-28T10:30:59.935+00:00,832,56894,151936.69819077232,152166.22825458387,151753.90562461683,151809.69557877726,152156.77346667927,152128.94554483242,151945.2142054098,152081.33632914262,TASK1
2026-04-28T10:30:59.935+00:00,832,56895,151948.23169091126,152177.7617547228,151765.43912475577,151821.22907891622,152170.4527342859,152142.62481243905,151958.89347301645,152094.7473758158,TASK1
2026-04-28T10:30:59.935+00:00,832,56896,151947.7623042777,152177.29236808926,151764.70151718875,151820.49147134917,152172.0620598867,152143.69769617292,151959.9663567503,152096.08848048313,TASK1
2026-04-28T10:30:59.935+00:00,832,56897,151910.5466497596,152140.07671357115,151727.48586267064,151783.2758168311,152130.82309136665,152102.72694858635,151919.2638300972,152055.11773289653,TASK1
2026-04-28T10:30:59.935+00:00,832,56898,151923.42125456588,152152.68309744395,151740.36046747692,151795.8822007039,152142.89303337253,152115.06511152568,151931.60199303651,152067.45589583585,TASK1
2026-04-28T10:30:59.935+00:00,832,56899,151947.5611385776,152176.82298145568,151764.50035148865,151819.75386378216,152167.03291738426,152139.2049955374,151955.47365611477,152091.32755891414,TASK1
2026-04-28T10:30:59.935+00:00,832,56900,151947.5611385776,152176.62181575558,151764.50035148865,151819.55269808206,152167.03291738426,152139.2049955374,151955.47365611477,152091.5957798476,TASK1
2026-04-28T10:30:59.935+00:00,832,56901,151928.04806566812,152157.10874284612,151744.7190576457,151800.30784610604,152147.25162354132,152119.6919226279,151935.9605832053,152072.3509278716,TASK1
2026-04-28T10:30:59.935+00:00,832,56902,151915.5087370287,152144.56941420666,151731.9115080728,151787.7685174666,152134.44407396842,152106.88437305504,151923.42125456588,152059.5433782987,TASK1
2026-04-28T10:30:59.935+00:00,832,56903,151932.4066558369,152161.73555394835,151749.07764781447,151804.9346572083,152151.6102137101,152124.0505127967,151940.3191733741,152076.4412971069,TASK1
2026-04-28T10:30:59.935+00:00,832,56904,151956.01009798172,152185.0707751597,151772.68108995928,151828.53809935309,152175.48187678837,152147.65395494152,151963.92261551888,152099.77651831825,TASK1
2026-04-28T10:30:59.935+00:00,832,56905,151955.00426948123,152184.0649466592,151771.40704052534,151827.5322708526,152174.2078273544,152146.64812644102,151962.9167870184,152098.77068981776,TASK1
2026-04-28T10:30:59.935+00:00,832,56906,151936.29585937213,152165.62475748357,151752.69863041624,151808.55563981005,152155.23119631186,152127.67149539848,151944.47659784276,152080.33050064213,TASK1
2026-04-28T10:30:59.935+00:00,832,56907,151923.7565307327,152152.81720791067,151739.89108084334,151795.74809023715,152142.69186767243,152114.86394582558,151931.6690482699,152067.7911720027,TASK1
2026-04-28T10:30:59.935+00:00,832,56908,151940.38622860744,152169.17868485197,151756.78899965156,151812.37778811192,152159.32156554717,152131.7618646338,151948.29874614463,152084.68909081092,TASK1
2026-04-28T10:30:59.935+00:00,832,56909,151965.0625544861,152193.85501073062,151781.4653255302,151837.05411399057,152183.99789142582,152156.43819051245,151972.97507202328,152109.0971957561,TASK1
2026-04-28T10:30:59.935+00:00,832,56910,151964.99549925275,152194.65967353102,151782.40409879733,151837.9928872577,152184.93666469297,152157.37696377956,151973.7126795903,152109.23130622285,TASK1
2026-04-28T10:30:59.935+00:00,832,56911,151946.28708914365,152175.9512634219,151763.42746775478,151819.28447714858,152165.9600336504,152138.40033273702,151954.73604854775,152090.52289611375,TASK1
2026-04-28T10:30:59.935+00:00,832,56912,151933.47953957075,152162.87549291557,151750.61991818188,151806.20870664224,152152.88426314405,152125.59278316412,151941.39205710794,152077.71534654085,TASK1
2026-04-28T10:30:59.935+00:00,832,56913,151949.03635371165,152178.43230705647,151766.17673232278,151822.0337417166,152168.44107728495,152141.14959730502,151956.94887124884,152093.54038161522,TASK1
2026-04-28T10:30:59.935+00:00,832,56914,151973.98090052378,152203.3768538686,151790.85305820144,151846.9782885287,152193.65384503052,152166.3623650506,151981.89341806096,152118.21670749388,TASK1
2026-04-28T10:30:59.935+00:00,832,56915,151975.05378425762,152204.44973760244,151791.9259419353,151848.05117226258,152194.7267287644,152167.7034697179,151983.23452272828,152119.5578121612,TASK1
2026-04-28T10:30:59.935+00:00,832,56916,151956.88181601546,152186.27776936028,151773.75397369315,151829.8792040204,152176.5547605222,152148.99505960883,151964.79433355265,152101.11762298556,TASK1
2026-04-28T10:30:59.935+00:00,832,56917,151942.73316177525,152172.12911512007,151759.60531945294,151815.73054978022,152162.406106282,152134.57818443514,151950.64567931244,152086.96896874535,TASK1
2026-04-28T10:30:59.935+00:00,832,56918,151960.16752245039,152189.29525486173,151777.03968012807,151832.6284685884,152179.84046695716,152152.01254511028,151968.08003998757,152104.13510848704,TASK1
2026-04-28T10:30:59.935+00:00,832,56919,151984.84384832907,152213.9715807404,151801.71600600673,151857.57301540053,152204.78501376926,152176.9570919224,151992.75636586623,152128.8114343657,TASK1
2026-04-28T10:30:59.935+00:00,832,56920,151984.3744616955,152213.77041504032,151801.24661937315,151857.37184970043,152204.31562713571,152176.48770528886,151992.55520016613,152128.34204773212,TASK1
2026-04-28T10:30:59.935+00:00,832,56921,151964.32494691908,152193.7209002639,151780.66066272982,151837.32233492404,152183.99789142582,152156.16996957897,151972.5056853897,152108.02431202226,TASK1
2026-04-28T10:30:59.935+00:00,832,56922,151952.85850201352,152181.98623442487,151768.9259968908,151825.58766908498,152172.2632255868,152144.43530373994,151960.50279861724,152096.55786711667,TASK1
2026-04-28T10:30:59.935+00:00,832,56923,151971.63396735597,152200.76169976732,151787.70146223324,151844.36313442746,152190.7704699958,152163.2107690824,151979.27826395968,152115.06511152568,TASK1
2026-04-28T10:30:59.935+00:00,832,56924,151995.7738513677,152225.16980471252,151812.37778811192,151868.77123937264,152215.178574941,152187.6188740276,152003.6863689049,152139.47321647085,TASK1
2026-04-28T10:30:59.935+00:00,832,56925,151998.45606070233,152227.85201404715,151815.05999744654,151871.4534487073,152219.20188894295,152191.3739670961,152007.1732410399,152142.9600886059,TASK1
2026-04-28T10:30:59.935+00:00,832,56926,151980.28409246018,152209.680045805,151796.8880292044,151853.01325953167,152201.29814163424,152173.47021978738,151989.2694937312,152124.78812036372,TASK1
2026-04-28T10:30:59.935+00:00,832,56927,151959.9663567503,152189.63053102858,151776.83851442797,151832.96374475525,152179.63930125706,152152.07960034366,151967.87887428747,152103.66572185347,TASK1
2026-04-28T10:30:59.935+00:00,832,56928,151976.59605462506,152206.26022890332,151793.19999136924,151849.86166356347,152196.2689991318,152169.24574008535,151984.50857216222,152120.2954197282,TASK1
2026-04-28T10:30:59.935+00:00,832,56929,152001.00415957024,152230.93655478198,151817.87631724792,151874.26976850865,152220.94532501046,152193.65384503052,152009.1848980409,152144.97174560686,TASK1
2026-04-28T10:30:59.935+00:00,832,56930,152000.5347729367,152230.19894721496,151817.40693061435,151873.53216094163,152220.20771744344,152192.9162374635,152008.44729047385,152144.23413803984,TASK1
2026-04-28T10:30:59.935+00:00,832,56931,151981.55814189411,152210.68587430546,151797.89385770488,151854.01908803213,152200.69464453394,152173.67138548748,151989.20243849783,152125.2575069973,TASK1
2026-04-28T10:30:59.935+00:00,832,56932,151967.94592952085,152197.0736619322,151784.2816453316,151840.40687565887,152187.35065309412,152159.79095218075,151975.858447058,152111.645294624,TASK1
2026-04-28T10:30:59.935+00:00,832,56933,151985.64851112943,152215.04446447425,151801.9842269402,151858.37767820092,152205.05323470273,152177.7617547228,151993.8292496001,152129.3478762326,TASK1
2026-04-28T10:30:59.935+00:00,832,56934,152009.52017420772,152238.64790661907,151825.58766908498,151881.98112034574,152228.924897781,152201.6334178011,152017.16447081143,152153.21953931087,TASK1
2026-04-28T10:30:59.935+00:00,832,56935,152009.52017420772,152239.45256941946,151826.92877375233,151882.4505069793,152229.72956058139,152202.3710253681,152018.17029931193,152153.75598117782,TASK1
2026-04-28T10:30:59.935+00:00,832,56936,151991.0799850321,152221.01238024383,151808.4885845767,151863.7420968702,152210.75292953884,152183.662615259,151999.7301101363,152135.04757106872,TASK1
2026-04-28T10:30:59.935+00:00,832,56937,151977.19955172535,152206.86372600362,151794.071709403,151849.59344263,152196.8724962321,152169.5139610188,151985.58145589608,152121.16713776198,TASK1
2026-04-28T10:30:59.935+00:00,832,56938,151995.1703542674,152224.83452854567,151812.04251194507,151867.2960242386,152214.5750778407,152187.2165426274,152003.55225843814,152139.13794030403,TASK1
2026-04-28T10:30:59.935+00:00,832,56939,152020.11490107953,152250.31551722472,151837.25527969067,151892.77701291765,152239.78784558628,152212.429310373,152028.76502618374,152164.35070804963,TASK1
2026-04-28T10:30:59.935+00:00,832,56940,152031.64840121847,152261.84901736368,151849.05700076307,151904.31051305658,152253.7353341264,152226.10857797964,152042.44429379038,152178.29819658972,TASK1
2026-04-28T10:30:59.935+00:00,832,56941,152025.2781540487,152255.21054926043,151842.6867535933,151897.67204495336,152248.4379706905,152221.07943547718,152037.14693035447,152172.4643912869,TASK1
2026-04-28T10:30:59.935+00:00,832,56942,151988.0624995306,152217.99489474235,151805.20287814175,151860.45639043528,152208.00366497083,152180.37690882408,151996.71262463482,152132.2983065007,TASK1
2026-04-28T10:30:59.935+00:00,832,56943,152001.74176713725,152231.674162349,151818.88214574842,151874.4038789754,152221.68293257747,152193.78795549728,152010.123671308,152145.97757410735,TASK1
2026-04-28T10:30:59.935+00:00,832,56944,152025.61343021554,152255.2776044938,151843.02202976012,151898.27554205366,152245.55459565576,152217.92783950898,152033.99533438627,152170.1174581191,TASK1
2026-04-28T10:30:59.935+00:00,832,56945,152025.41226451544,152255.0764387937,151842.55264312658,151898.07437635356,152245.35342995566,152217.7266738089,152033.5259477527,152169.916292419,TASK1
2026-04-28T10:30:59.935+00:00,832,56946,152006.9720753398,152236.63624961808,151823.57601208403,151879.36596624446,152226.91324078004,152199.0182636998,152015.08575857707,152151.20788230991,TASK1
2026-04-28T10:30:59.935+00:00,832,56947,151992.0187582992,152221.68293257747,151808.89091597687,151864.68087013732,152211.95992373943,152184.0649466592,152000.1324415365,152136.52278620275,TASK1
2026-04-28T10:30:59.935+00:00,832,56948,152008.11201430703,152237.7761885853,151824.9841719847,151880.77412614514,152228.05317974725,152199.88998173355,152015.95747661084,152152.61604221057,TASK1
2026-04-28T10:30:59.935+00:00,832,56949,152032.25189831876,152261.64785166358,151849.12405599642,151905.18223109035,152251.9248428255,152224.02986574528,152040.09736062257,152176.7559262223,TASK1
2026-04-28T10:30:59.935+00:00,832,56950,152032.78834018568,152262.1842935305,151849.92871879681,151905.71867295727,152252.7295056259,152224.56630761223,152040.90202342297,152177.5605890227,TASK1
2026-04-28T10:30:59.935+00:00,832,56951,152014.34815101005,152243.4758834214,151831.4885296212,151887.01026284817,152233.75287458336,152206.1261184366,152022.19361331387,152159.12039984707,TASK1
2026-04-28T10:31:00.230+00:00,833,56952,152000.46771770332,152229.86367104814,151817.87631724792,151873.3980504749,152220.14066221006,152192.24568512983,152008.5814009406,152145.23996654034,TASK1
2026-04-28T10:31:00.230+00:00,833,56953,152019.24318304576,152248.3709154571,151836.3835616569,151891.90529488388,152238.91612755254,152210.75292953884,152027.08864534958,152163.74721094934,TASK1
2026-04-28T10:31:00.230+00:00,833,56954,152045.5288345252,152274.3883460031,151862.4009922029,151918.19094636332,152264.9335580985,152237.03858101828,152053.37429682902,152189.7646414953,TASK1
2026-04-28T10:31:00.230+00:00,833,56955,152046.3334973256,152274.92478787003,151862.9374340698,151918.9956091637,152265.7382208989,152237.5750228852,152053.91073869597,152190.30108336222,TASK1
2026-04-28T10:31:00.230+00:00,833,56956,152026.55220348266,152255.41171496053,151843.42436116032,151899.48253625425,152245.95692705596,152218.06194997573,152034.39766578647,152171.0562313862,TASK1
2026-04-28T10:31:00.230+00:00,833,56957,152012.93999110936,152242.0677235207,151830.0803697205,151885.87032388095,152232.34471468267,152204.7179585359,152020.78545341318,152157.71223994638,TASK1
2026-04-28T10:31:00.230+00:00,833,56958,152030.10613085105,152259.50208419588,151847.2465094622,151903.03646362264,152250.04729629128,152221.88409827757,152038.21981408834,152174.87837968807,TASK1
2026-04-28T10:31:00.230+00:00,833,56959,152053.4413520624,152282.30086354027,151870.31350974005,151926.1034639005,152273.11429656914,152244.95109855547,152061.2868143662,152198.2136008994,TASK1
2026-04-28T10:31:00.230+00:00,833,56960,152051.36263982806,152280.4903722394,151868.5030184392,151924.29297259962,152271.0355843348,152243.14060725458,152059.47632306532,152196.40310959853,TASK1
2026-04-28T10:31:00.230+00:00,833,56961,152030.50846225125,152259.6361946626,151847.64884086238,151903.7070159563,152250.181406758,152222.28642967777,152038.6221454885,152175.54893202175,TASK1
2026-04-28T10:31:00.232+00:00,833,56962,152015.48808997727,152244.8840433221,151832.76257905515,151888.41842274886,152235.69747635096,152208.2718859043,152024.13821508148,152160.12622834757,TASK1
2026-04-28T10:31:00.232+00:00,833,56963,152030.24024131778,152259.6361946626,151847.51473039566,151903.17057408937,152250.44962769147,152223.29225817826,152039.15858735546,152174.6101587546,TASK1
2026-04-28T10:31:00.232+00:00,833,56964,152053.30724159567,152282.70319494046,151870.31350974005,151926.23757436723,152273.2484070359,152246.09103752268,152062.22558763332,152197.6771590325,TASK1
2026-04-28T10:31:00.232+00:00,833,56965,152053.30724159567,152283.2396368074,151870.849951607,151926.5057953007,152273.51662796934,152246.09103752268,152062.4938085668,152197.94537996594,TASK1
2026-04-28T10:31:00.232+00:00,833,56966,152034.86705242004,152264.79944763178,151852.1415414979,151908.06560612508,152255.0764387937,152227.65084834705,152044.05361939117,152179.5051907903,TASK1
2026-04-28T10:31:00.232+00:00,833,56967,152022.05950284714,152251.7236771254,151839.06577099155,151894.72161468526,152242.00066828736,152214.30685690723,152030.9778488848,152166.42942028397,TASK1
2026-04-28T10:31:00.232+00:00,833,56968,152040.56674725615,152270.2309215344,151857.57301540053,151913.22885909426,152260.50791269634,152232.81410131624,152049.4850932938,152184.93666469297,TASK1
2026-04-28T10:31:00.232+00:00,833,56969,152065.2430731348,152295.17546834654,151882.78578314613,151938.17340590636,152285.45245950847,152257.75864812834,152073.893198239,152209.61299057162,TASK1
2026-04-28T10:31:00.232+00:00,833,56970,152068.72994526982,152298.66234048156,151886.54087621463,151941.6602780414,152289.74399444388,152262.5866249307,152078.45295410787,152214.1727464405,TASK1
2026-04-28T10:31:00.232+00:00,833,56971,152051.0944188946,152280.75859317285,151868.36890797244,151923.22008886578,152272.37668900212,152245.2193194889,152061.0856486661,152197.0736619322,TASK1
2026-04-28T10:31:00.232+00:00,833,56972,152025.94870638236,152255.34465972718,151842.95497452677,151898.07437635356,152245.6216508891,152217.92783950898,152034.3306105531,152170.31862381918,TASK1
2026-04-28T10:31:00.232+00:00,833,56973,152042.04196239018,152271.16969480153,151859.0482305346,151914.43585329482,152261.71490689693,152234.0210955168,152050.42386656092,152186.14365889356,TASK1
2026-04-28T10:31:00.232+00:00,833,56974,152067.52295106923,152296.65068348058,151884.26099828017,151939.64862104043,152286.65945370906,152259.2338632624,152075.63663430652,152211.35642663913,TASK1
2026-04-28T10:31:00.232+00:00,833,56975,152072.3509278716,152301.47866028294,151889.08897508253,151944.20837690932,152291.48743051142,152264.06184006474,152080.46461110885,152216.18440344147,TASK1
2026-04-28T10:31:00.232+00:00,833,56976,152058.7387154983,152287.59822697617,151875.20854177576,151930.32794360255,152277.60699720465,152250.44962769147,152066.5841778021,152202.5721910682,TASK1
2026-04-28T10:31:00.232+00:00,833,56977,152046.7358287258,152275.86356113714,151863.2056550033,151918.32505683007,152265.60411043215,152238.44674091897,152054.5812910296,152190.5693042957,TASK1
2026-04-28T10:31:00.232+00:00,833,56978,152065.51129406824,152294.90724741307,151882.2493412792,151937.368743106,152284.64779670807,152257.4904271949,152073.62497730553,152209.61299057162,TASK1
2026-04-28T10:31:00.232+00:00,833,56979,152092.33338741463,152321.72934075943,151909.07143462557,151964.19083645236,152311.46989005446,152284.31252054125,152100.4470706519,152236.16686298454,TASK1
2026-04-28T10:31:00.232+00:00,833,56980,152095.82025954966,152324.947991961,151912.5583067606,151967.4094876539,152314.688541256,152287.79939267627,152103.93394278694,152239.65373511956,TASK1
2026-04-28T10:31:00.232+00:00,833,56981,152079.25761690826,152308.3853493196,151896.26388505267,151950.84684501254,152298.12589861464,152271.50497096835,152087.63952107902,152223.09109247816,TASK1
2026-04-28T10:31:00.232+00:00,833,56982,152065.645404535,152294.50491601287,151882.38345174593,151937.50285357272,152284.24546530787,152257.35631672817,152073.75908777225,152209.4788801049,TASK1
2026-04-28T10:31:00.232+00:00,833,56983,152082.00688147626,152310.86639295417,151898.7449286872,151953.86433051398,152300.87516318265,152273.71779366944,152090.12056471355,152226.10857797964,TASK1
2026-04-28T10:31:00.232+00:00,833,56984,152105.87854455455,152334.73805603242,151922.348370832,151977.4677726588,152324.7468262609,152297.5894567477,152113.9922277918,152249.9802410579,TASK1
2026-04-28T10:31:00.232+00:00,833,56985,152103.26339045327,152331.8546809977,151919.4649957973,151974.3161766906,152321.5952302927,152294.70608171297,152111.10885275708,152246.8286450897,TASK1
2026-04-28T10:31:00.232+00:00,833,56986,152080.53166634223,152309.12295688665,151897.0014926197,151951.58445257955,152299.39994804858,152271.97435760192,152088.64534957948,152224.09692097866,TASK1
2026-04-28T10:31:00.232+00:00,833,56987,152061.2868143662,152290.14632584408,151878.29308251062,151932.87604247045,152280.42331700603,152252.99772655938,152069.66871853694,152205.1202899361,TASK1
2026-04-28T10:31:00.232+00:00,833,56988,152073.35675637206,152302.21626784996,151890.36302451647,151944.94598447633,152292.49325901188,152265.06766856523,152081.73866054282,152217.19023194196,TASK1
2026-04-28T10:31:00.232+00:00,833,56989,152092.66866358145,152321.52817505933,151909.67493172587,151964.25789168573,152311.80516622128,152284.11135484115,152101.0505677522,152236.23391821788,TASK1
2026-04-28T10:31:00.232+00:00,833,56990,152091.3946141475,152320.2541256254,151908.4008822919,151962.7156213183,152310.53111678732,152282.8373054072,152099.50829738477,152234.95986878395,TASK1
2026-04-28T10:31:00.232+00:00,833,56991,152071.88154123802,152300.7410527159,151888.61958844896,151943.20254840882,152290.74982294437,152263.05601156424,152079.72700354183,152215.178574941,TASK1
2026-04-28T10:31:00.232+00:00,833,56992,152054.51423579623,152283.91018914105,151871.78872487412,151926.37168483398,152273.91895936953,152246.49336892288,152063.16436090044,152198.34771136614,TASK1
2026-04-28T10:31:00.232+00:00,833,56993,152072.3509278716,152302.14921261658,151889.89363788292,151945.34831587653,152292.69442471198,152265.06766856523,152081.40338437597,152216.92201100852,TASK1
2026-04-28T10:31:00.232+00:00,833,56994,152098.36835841756,152328.16664316258,151915.64284749542,151971.09752548905,152318.71185525798,152291.35332004467,152107.1525939885,152242.671220621,TASK1
2026-04-28T10:31:00.232+00:00,833,56995,152102.3916724195,152332.18995716452,151919.6661614974,151975.38906042447,152322.73516925992,152295.37663404664,152110.90768705698,152246.69453462298,TASK1
2026-04-28T10:31:00.232+00:00,833,56996,152086.63369257853,152316.16375639007,151903.90818165638,151959.36285965,152306.97718941895,152279.61865420564,152095.41792814946,152230.93655478198,TASK1
2026-04-28T10:31:00.232+00:00,833,56997,152073.55792207216,152303.0879858837,151890.83241115004,151946.01886821017,152293.63319797913,152266.5428836993,152082.07393670964,152217.86078427563,TASK1
2026-04-28T10:31:00.232+00:00,833,56998,152092.06516648116,152321.5952302927,151909.33965555902,151964.52611261918,152312.1404423881,152284.78190717482,152100.58118111864,152236.3680286846,TASK1
2026-04-28T10:31:00.232+00:00,833,56999,152117.5461551602,152347.34443990522,151934.8206442381,151990.2753222317,152337.88965200062,152310.53111678732,152126.5986116646,152262.11723829713,TASK1
2026-04-28T10:31:00.232+00:00,833,57000,152126.93388783143,152356.73217257645,151944.20837690932,151999.9312758364,152348.88671027264,152321.7963959928,152137.59566993662,152273.11429656914,TASK1
2026-04-28T10:31:00.232+00:00,833,57001,152107.6890358554,152337.7555415339,151924.9635249333,151980.95464479382,152330.17830016353,152302.55154401678,152118.61903889407,152254.1376655266,TASK1
2026-04-28T10:31:00.232+00:00,833,57002,152078.52000934124,152308.5865150197,151895.7944984191,151951.51739734618,152299.13172711513,152271.50497096835,152087.57246584565,152223.09109247816,TASK1
2026-04-28T10:31:00.232+00:00,833,57003,152098.36835841756,152328.43486409602,151915.64284749542,151971.3657464225,152318.98007619142,152291.08509911122,152107.42081492196,152243.20766248796,TASK1
2026-04-28T10:31:00.232+00:00,833,57004,152119.02137029427,152349.08787597273,151936.02763843865,151992.0187582992,152339.63308806813,152311.7381109879,152127.8056058652,152263.86067436464,TASK1
2026-04-28T10:31:00.232+00:00,833,57005,152117.47909992686,152347.54560560532,151934.48536807124,151990.4764879318,152338.09081770072,152310.1958406205,152126.2633354978,152262.31840399723,TASK1
2026-04-28T10:31:00.232+00:00,833,57006,152098.77068981776,152328.83719549622,151915.5087370287,151971.7680778227,152319.38240759162,152291.48743051142,152107.5549253887,152243.34177295468,TASK1
2026-04-28T10:31:00.232+00:00,833,57007,152080.59872157557,152310.3970063206,151897.33676878654,151953.59610958054,152300.942218416,152273.0472413358,152089.11473621306,152224.90158377905,TASK1
2026-04-28T10:31:00.232+00:00,833,57008,152094.5462101157,152324.61271579418,151911.5524782601,151967.8118190541,152314.8897069561,152286.99472987588,152103.06222475317,152238.84907231916,TASK1
2026-04-28T10:31:00.232+00:00,833,57009,152116.27210572627,152346.33861140473,151933.27837387065,151989.53771466468,152336.6156025667,152309.25706735338,152125.0563412972,152260.8431888632,TASK1
2026-04-28T10:31:00.232+00:00,833,57010,152116.5403266597,152346.6068323382,151933.54659480412,151989.80593559812,152337.1520444336,152309.52528828685,152125.0563412972,152261.11140979663,TASK1
2026-04-28T10:31:00.232+00:00,833,57011,152097.83191655064,152327.63020129563,151914.56996376158,151971.09752548905,152318.17541339106,152290.81687817775,152106.3479311881,152242.40299968756,TASK1
2026-04-28T10:31:00.232+00:00,833,57012,152081.53749484272,152311.3357795877,151898.27554205366,151954.80310378113,152301.88099168314,152274.52245646983,152090.05350948017,152226.3767989131,TASK1
2026-04-28T10:31:00.232+00:00,833,57013,152097.0943089836,152327.1608146621,151913.56413526108,151970.359917922,152317.437805824,152290.07927061073,152105.87854455455,152241.6653921205,TASK1
2026-04-28T10:31:00.232+00:00,833,57014,152122.9105738295,152353.37941090815,151940.38622860744,151996.04207230115,152343.38818113663,152316.16375639007,152131.7618646338,152267.41460173303,TASK1
2026-04-28T10:31:00.232+00:00,833,57015,152129.07965529914,152359.28027144435,151946.28708914365,152002.21115377083,152350.09370447323,152322.86927972667,152138.4673879704,152274.3883460031,TASK1
2026-04-28T10:31:00.232+00:00,833,57016,152111.98057079085,152341.64474506912,151928.9197837019,151984.84384832907,152332.458178098,152305.2337533514,152121.1000825286,152257.02104056132,TASK1
2026-04-28T10:31:00.232+00:00,833,57017,152094.07682348214,152323.7409977604,151911.28425732665,151966.94010102036,152314.01798892237,152286.79356417578,152102.65989335297,152238.5808513857,TASK1
2026-04-28T10:31:00.232+00:00,833,57018,152111.77940509075,152341.7118003025,151928.7186180018,151984.64268262897,152331.72057053095,152304.4961457844,152120.36247496158,152256.01521206083,TASK1
2026-04-28T10:31:00.232+00:00,833,57019,152137.52861470325,152367.461009915,151954.19960668084,152010.123671308,152357.20155921002,152330.2453553969,152146.1116845741,152281.76442167335,TASK1
2026-04-28T10:31:00.232+00:00,833,57020,152141.82014963866,152371.7525448504,151958.49114161625,152014.14698530996,152361.49309414544,152334.53689033233,152150.40321950952,152286.05595660876,TASK1
2026-04-28T10:31:00.232+00:00,833,57021,152125.2575069973,152355.18990220904,151942.19671990833,151997.85256360203,152345.19867243752,152318.2424686244,152134.1087978016,152269.76153490084,TASK1
2026-04-28T10:31:00.232+00:00,833,57022,152108.6948643559,152338.62725956764,151925.9022982004,151981.28992096067,152328.36780886268,152301.67982598304,152117.5461551602,152253.19889225948,TASK1
2026-04-28T10:31:00.232+00:00,833,57023,152125.32456223067,152354.98873650894,151942.2637751417,151997.65139790194,152344.72928580394,152318.0413029243,152133.9076321015,152269.56036920074,TASK1
2026-04-28T10:31:00.232+00:00,833,57024,152150.80555090972,152380.73794612146,151967.74476382075,152023.13238658098,152370.210274483,152343.79051253683,152159.38862078055,152295.30957881326,TASK1
2026-04-28T10:31:00.232+00:00,833,57025,152153.75598117782,152383.68837638956,151970.9634150223,152026.08281684908,152373.1607047511,152346.74094280493,152162.33905104865,152297.9917881479,TASK1
2026-04-28T10:31:00.232+00:00,833,57026,152134.77935013524,152364.44352441354,151951.98678397975,152007.37440674,152354.45229464202,152328.03253269583,152143.3624200061,152279.01515710534,TASK1
2026-04-28T10:31:00.518+00:00,834,57027,152115.26627722578,152344.93045150404,151932.74193200373,151987.86133383051,152335.207442666,152308.7876807198,152124.11756803008,152259.77030512932,TASK1
2026-04-28T10:31:00.518+00:00,834,57028,152130.82309136665,152360.21904471147,151948.03052521116,152003.41814797142,152350.49603587342,152323.8080529938,152139.4061612375,152275.32711927022,TASK1
2026-04-28T10:31:00.518+00:00,834,57029,152157.10874284612,152386.5046961909,151974.3161766906,152029.70379945086,152376.78168735286,152350.09370447323,152165.69181271695,152301.61277074966,TASK1
2026-04-28T10:31:00.518+00:00,834,57030,152164.88714991655,152394.28310326138,151982.3628046945,152037.4822065213,152385.09653629022,152358.40855341058,152174.0066616543,152309.92761968705,TASK1
2026-04-28T10:31:00.518+00:00,834,57031,152149.66561194247,152379.0615652873,151967.4094876539,152022.26066854724,152370.14321924964,152343.45523637,152159.05334461373,152294.70608171297,TASK1
2026-04-28T10:31:00.518+00:00,834,57032,152131.49364370032,152361.1578179786,151949.23751941175,152004.08870030506,152351.70303007402,152324.7468262609,152140.6131554381,152276.26589253734,TASK1
2026-04-28T10:31:00.518+00:00,834,57033,152149.46444624237,152379.12862052067,151966.94010102036,152021.79128191367,152369.13739074915,152342.4494078695,152158.04751611323,152293.96847414595,TASK1
2026-04-28T10:31:00.518+00:00,834,57034,152174.94543492145,152404.8778301332,151992.4210896994,152047.27227059272,152394.88660036164,152367.93039654856,152183.79672572573,152319.71768375847,TASK1
2026-04-28T10:31:00.518+00:00,834,57035,152180.57807452418,152410.24224880245,151998.05372930213,152052.90491019547,152400.78746089785,152373.83125708476,152189.42936532848,152325.3503233612,TASK1
2026-04-28T10:31:00.518+00:00,834,57036,152164.28365281626,152394.216048028,151982.0275285277,152036.61048848755,152384.7612601234,152357.80505631032,152173.403164554,152309.32412258675,TASK1
2026-04-28T10:31:00.518+00:00,834,57037,152147.18456830794,152377.1169635197,151965.19666495285,152019.7796249127,152367.66217561509,152340.705971802,152156.57230097917,152292.22503807844,TASK1
2026-04-28T10:31:00.518+00:00,834,57038,152161.40027778153,152391.33267299327,151979.4123744264,152033.99533438627,152381.6096641552,152354.65346034212,152170.51978951928,152306.440747552,TASK1
2026-04-28T10:31:00.518+00:00,834,57039,152184.2661123593,152414.13145233766,152001.54060143715,152057.06233466414,152404.34138826624,152376.7146321195,152192.84918223013,152328.7030850295,TASK1
2026-04-28T10:31:00.518+00:00,834,57040,152184.80255422622,152414.39967327114,152001.80882237063,152057.3305555976,152404.60960919972,152377.2510739864,152193.1174031636,152329.23952689642,TASK1
2026-04-28T10:31:00.518+00:00,834,57041,152162.6072719821,152392.20439102701,151979.88176105998,152035.40349428696,152382.68254788907,152355.32401267576,152171.19034185295,152307.0442446523,TASK1
2026-04-28T10:31:00.518+00:00,834,57042,152140.94843160492,152370.54555064984,151958.22292068278,152013.4764329763,152361.02370751186,152333.66517229858,152149.53150147575,152285.38540427512,TASK1
2026-04-28T10:31:00.518+00:00,834,57043,152153.82303641117,152383.68837638956,151970.82930455558,152026.61925871603,152373.8983123181,152346.8079980383,152162.67432721547,152298.52823001484,TASK1
2026-04-28T10:31:00.518+00:00,834,57044,152176.3535948221,152406.2189348005,151993.35986296652,152049.14981712698,152396.42887072908,152369.6067773827,152184.93666469297,152320.7905674923,TASK1
2026-04-28T10:31:00.518+00:00,834,57045,152188.9599786949,152418.55709773983,152005.96624683932,152061.75620099978,152410.91280113612,152384.09070778976,152199.15237416653,152335.0062769659,TASK1
2026-04-28T10:31:00.518+00:00,834,57046,152180.44396405746,152410.04108310235,151997.7184531353,152053.2401863623,152403.4696702325,152376.6475768861,152191.7092432629,152327.56314606228,TASK1
2026-04-28T10:31:00.518+00:00,834,57047,152143.7647514063,152373.63009138466,151961.03924048416,152016.56097371114,152363.84002731324,152337.01793396685,152152.61604221057,152288.46994500994,TASK1
2026-04-28T10:31:00.518+00:00,834,57048,152157.17579807946,152387.04113805783,151974.18206622388,152029.97202038433,152376.98285305296,152350.16075970657,152165.7588679503,152301.88099168314,TASK1
2026-04-28T10:31:00.518+00:00,834,57049,152182.1203448916,152411.98568486996,151999.39483396945,152054.91656719643,152401.9273998651,152375.1053065187,152190.70341476242,152326.82553849524,TASK1
2026-04-28T10:31:00.518+00:00,834,57050,152188.28942636127,152418.4229872731,152005.29569450565,152061.0856486661,152408.09648133474,152381.27438798838,152196.8724962321,152332.9946199649,TASK1
2026-04-28T10:31:00.518+00:00,834,57051,152173.87255118758,152403.73789116595,151990.878819332,152046.9369944259,152393.67960616108,152366.58929188125,152182.4556210584,152318.57774479123,TASK1
2026-04-28T10:31:00.518+00:00,834,57052,152157.84635041314,152387.17524852458,151974.58439762407,152030.91079365145,152377.38518445316,152350.29487017333,152165.89297841705,152302.28332308333,TASK1
2026-04-28T10:31:00.518+00:00,834,57053,152175.28071108827,152405.14605106664,151992.0187582992,152048.34515432658,152394.8195451283,152367.99745178194,152183.8637809591,152319.98590469192,TASK1
2026-04-28T10:31:00.518+00:00,834,57054,152200.49347883384,152430.62703974568,152017.49974697825,152073.2897011387,152420.03231287387,152393.47844046098,152209.34476963815,152345.46689337096,TASK1
2026-04-28T10:31:00.518+00:00,834,57055,152205.85789750313,152435.7232374815,152022.59594471406,152078.38589887452,152425.39673154315,152398.5746381968,152214.70918830743,152350.56309110677,TASK1
2026-04-28T10:31:00.518+00:00,834,57056,152190.09991766213,152419.69703670705,152006.56974393962,152062.896139967,152409.63875170215,152382.8166583558,152198.95120846643,152334.8051112658,TASK1
2026-04-28T10:31:00.518+00:00,834,57057,152172.73261222037,152402.3297312653,151989.20243849783,152045.5288345252,152392.2714462604,152365.71757384748,152181.58390302467,152317.437805824,TASK1
2026-04-28T10:31:00.518+00:00,834,57058,152188.28942636127,152417.88654540616,152004.75925263873,152061.0856486661,152407.56003946782,152381.0061670549,152197.14071716554,152332.72639903144,TASK1
2026-04-28T10:31:00.518+00:00,834,57059,152212.96575223992,152442.5628712848,152029.70379945086,152085.76197454476,152432.23636534647,152405.68249293356,152221.81704304423,152357.40272491012,TASK1
2026-04-28T10:31:00.518+00:00,834,57060,152215.64796157455,152445.5133015529,152032.38600878548,152088.44418387942,152434.9185746811,152408.3647022682,152224.49925237885,152360.35315517822,TASK1
2026-04-28T10:31:00.518+00:00,834,57061,152197.74421426584,152427.60955424423,152014.75048241025,152070.5404365707,152417.01482737242,152390.4609549595,152206.59550507015,152342.4494078695,TASK1
2026-04-28T10:31:00.518+00:00,834,57062,152179.3040250902,152408.90114413513,151996.04207230115,152051.8320264616,152398.30641726332,152371.7525448504,152187.88709496107,152323.47277682697,TASK1
2026-04-28T10:31:00.518+00:00,834,57063,152193.25151363033,152423.11685360872,152010.5260027082,152066.0477359352,152412.79034767035,152386.23647525746,152202.10280443463,152337.68848630053,TASK1
2026-04-28T10:31:00.518+00:00,834,57064,152217.1231767086,152446.7202957535,152034.39766578647,152089.91939901345,152436.66201074864,152410.10813833572,152225.9744675129,152361.56014937878,TASK1
2026-04-28T10:31:00.518+00:00,834,57065,152221.41471164403,152451.01183068892,152038.15275885497,152093.9427130154,152440.95354568405,152414.13145233766,152230.26600244833,152365.58346338075,TASK1
2026-04-28T10:31:00.518+00:00,834,57066,152206.86372600362,152437.0643421488,152024.00410461475,152079.9952244753,152427.00605714394,152399.714577164,152215.58090634117,152351.56891960726,TASK1
2026-04-28T10:31:00.518+00:00,834,57067,152188.15531589452,152418.35593203973,152005.29569450565,152061.2868143662,152408.5658679683,152381.0061670549,152196.8724962321,152332.8605094982,TASK1
2026-04-28T10:31:00.518+00:00,834,57068,152199.4205951,152429.6212112452,152016.56097371114,152072.5520935717,152419.56292624032,152392.00322532692,152208.40599637103,152344.12578870365,TASK1
2026-04-28T10:31:00.518+00:00,834,57069,152220.61004884364,152450.81066498882,152038.01864838824,152093.7415473153,152440.75237998395,152413.19267907055,152229.59545011466,152365.58346338075,TASK1
2026-04-28T10:31:00.518+00:00,834,57070,152225.9744675129,152455.90686272463,152043.3830670575,152098.56952411766,152446.1167986532,152418.55709773983,152234.69164785047,152370.67966111656,TASK1
2026-04-28T10:31:00.518+00:00,834,57071,152209.680045805,152439.61244101674,152027.08864534958,152082.27510240974,152430.09059787876,152402.53089696539,152218.66544707603,152354.38523940864,TASK1
2026-04-28T10:31:00.518+00:00,834,57072,152191.50807756282,152421.44047277456,152009.45311897434,152064.37135510103,152412.18685057005,152384.3589287232,152200.76169976732,152336.48149209993,TASK1
2026-04-28T10:31:00.518+00:00,834,57073,152206.5284498368,152436.19262411506,152024.20527031485,152079.12350644154,152426.93900191056,152399.1110800637,152215.51385110783,152351.23364344044,TASK1
2026-04-28T10:31:00.523+00:00,834,57074,152230.93655478198,152460.3325081268,152048.0769333931,152103.26339045327,152451.0788859223,152423.25096407544,152239.38551418608,152375.64174838565,TASK1
2026-04-28T10:31:00.523+00:00,834,57075,152238.71496185244,152468.11091519723,152056.12356139702,152111.31001845718,152459.66195579313,152432.10225487975,152247.9685840569,152384.22481825648,TASK1
2026-04-28T10:31:00.523+00:00,834,57076,152221.88409827757,152451.01183068892,152039.56091875565,152094.47915488234,152443.3675340852,152415.80783317183,152231.94238328247,152367.66217561509,TASK1
2026-04-28T10:31:00.523+00:00,834,57077,152198.88415323308,152428.01188564443,152016.02453184422,152071.21098890435,152419.02648437337,152391.19856252652,152207.60133357064,152343.32112590325,TASK1
2026-04-28T10:31:00.523+00:00,834,57078,152213.90452550704,152443.03225791838,152031.04490411817,152086.23136117833,152434.04685664736,152406.2189348005,152222.35348491115,152358.34149817724,TASK1
2026-04-28T10:31:00.523+00:00,834,57079,152238.04440951877,152467.17214193012,152054.91656719643,152110.37124519006,152457.91851972562,152430.09059787876,152246.49336892288,152382.48138218897,TASK1
2026-04-28T10:31:00.523+00:00,834,57080,152243.14060725458,152472.00011873245,152059.47632306532,152115.1992219924,152463.01471746142,152434.9185746811,152251.5895666587,152387.3093589913,TASK1
2026-04-28T10:31:00.523+00:00,834,57081,152226.84618554666,152455.70569702453,152043.45012229087,152098.90480028448,152446.7202957535,152418.62415297318,152235.56336588424,152371.01493728338,TASK1
2026-04-28T10:31:00.523+00:00,834,57082,152208.13777543756,152437.2655078489,152025.00993311525,152080.1963901754,152428.28010657788,152399.9157428641,152216.58673484167,152352.57474810776,TASK1
2026-04-28T10:31:00.523+00:00,834,57083,152223.42636864498,152452.8223219898,152040.56674725615,152095.75320431628,152443.83692071878,152415.74077793845,152232.14354898257,152368.13156224866,TASK1
2026-04-28T10:31:00.523+00:00,834,57084,152249.1755782575,152478.57153160233,152066.31595686864,152121.5024139288,152469.5861303313,152441.48998755097,152257.8927585951,152393.88077186118,TASK1
2026-04-28T10:31:00.523+00:00,834,57085,152255.61288066063,152484.74061307198,152072.48503833832,152127.93971633192,152475.75521180095,152447.65906902062,152264.06184006474,152400.3180742643,TASK1
2026-04-28T10:31:00.523+00:00,834,57086,152240.9277845535,152470.05551696484,152057.79994223118,152113.2546202248,152461.07011569382,152432.9739729135,152249.10852302416,152385.3647572237,TASK1
2026-04-28T10:31:00.523+00:00,834,57087,152222.48759537787,152451.8835487227,152039.627973989,152094.81443104916,152442.6299265182,152414.80200467134,152230.93655478198,152366.92456804807,TASK1
2026-04-28T10:31:00.523+00:00,834,57088,152236.9715257849,152466.09925819628,152054.11190439606,152109.2983614562,152457.11385692522,152429.55415601184,152245.420485189,152381.14027752166,TASK1
2026-04-28T10:31:00.523+00:00,834,57089,152259.2338632624,152488.36159567375,152076.642462807,152131.29247800022,152479.64441533617,152451.8164934893,152267.95104359998,152403.6708359326,TASK1
2026-04-28T10:31:00.523+00:00,834,57090,152262.9889563309,152491.84846780877,152080.12933494203,152134.5111292018,152483.13128747122,152455.0351446909,152271.437915735,152407.15770806762,TASK1
2026-04-28T10:31:00.523+00:00,834,57091,152247.76741835682,152476.35870890124,152064.6395760345,152119.28959122772,152467.6415285637,152439.8136067168,152256.21637776092,152391.6679491601,TASK1
2026-04-28T10:31:00.523+00:00,834,57092,152229.05900824774,152458.1867406591,152046.19938685888,152100.58118111864,152448.9331184546,152421.10519660774,152237.7761885853,152373.22775998447,TASK1
2026-04-28T10:31:00.523+00:00,834,57093,152244.61582238862,152473.47533386652,152061.75620099978,152116.13799525952,152463.95349072854,152436.39378981516,152252.79656085928,152388.5163531919,TASK1
2026-04-28T10:31:00.523+00:00,834,57094,152267.41460173303,152496.27411321094,152084.82320127764,152138.93677460394,152487.02049100643,152459.46079009303,152275.5953402037,152411.3151325363,TASK1
2026-04-28T10:31:00.523+00:00,834,57095,152271.437915735,152500.56564814635,152088.31007341266,152142.9600886059,152490.77558407493,152463.484104095,152279.35043327216,152415.0702256048,TASK1
2026-04-28T10:31:00.523+00:00,834,57096,152256.21637776092,152485.34411017227,152073.0885354386,152127.47032969838,152475.55404610085,152447.99434518747,152264.1288952981,152399.58046669728,TASK1
2026-04-28T10:31:00.523+00:00,834,57097,152238.04440951877,152467.6415285637,152054.91656719643,152110.37124519006,152458.1867406591,152430.49292927896,152246.49336892288,152382.14610602212,TASK1
2026-04-28T10:31:00.523+00:00,834,57098,152249.5779096577,152479.17502870262,152066.4500673354,152121.904745329,152469.72024079802,152442.0264294179,152258.0268690618,152393.67960616108,TASK1
2026-04-28T10:31:00.523+00:00,834,57099,152272.10846806865,152501.97380804704,152088.98062574634,152144.70352467342,152492.25079920897,152464.55698782884,152280.82564840623,152416.21016457202,TASK1
2026-04-28T10:31:00.523+00:00,834,57100,152276.936444871,152507.07000578285,152094.07682348214,152149.79972240923,152497.07877601133,152469.65318556465,152285.92184614204,152421.30636230783,TASK1
2026-04-28T10:31:00.523+00:00,834,57101,152259.30091849578,152489.43447940762,152076.70951804036,152131.89597510052,152479.71147056954,152452.0176591894,152268.2863197668,152403.93905686605,TASK1
2026-04-28T10:31:00.816+00:00,835,57102,152240.3242874532,152470.45784836504,152057.7328869978,152113.1875649914,152460.734839527,152433.30924908034,152249.30968872426,152384.9624258235,TASK1
2026-04-28T10:31:00.816+00:00,835,57103,152256.6857643945,152486.81932530634,152073.82614300563,152129.28082099924,152476.82809553482,152449.40250508816,152265.40294473205,152401.05568183132,TASK1
2026-04-28T10:31:00.816+00:00,835,57104,152282.97141587394,152513.37319771925,152100.11179448507,152155.56647247868,152503.11374701426,152475.6881565676,152291.68859621152,152427.60955424423,TASK1
2026-04-28T10:31:00.816+00:00,835,57105,152294.77313694634,152524.90669785818,152112.18173649095,152167.36819355108,152516.25657275398,152489.09920324077,152304.83142195124,152440.75237998395,TASK1
2026-04-28T10:31:00.816+00:00,835,57106,152284.37957577463,152514.51313668647,152101.7881753192,152157.24285331284,152506.9358953161,152479.51030486944,152295.51074451336,152431.16348161263,TASK1
2026-04-28T10:31:00.816+00:00,835,57107,152252.26011899233,152482.39367990417,152069.13227667002,152124.8551755971,152472.40245013265,152444.976859686,152260.9772993299,152396.63003642918,TASK1
2026-04-28T10:31:00.816+00:00,835,57108,152263.52539819782,152493.65895910966,152080.3975558755,152136.12045480256,152483.66772933814,152455.973917958,152272.2425785354,152407.89531563464,TASK1
2026-04-28T10:31:00.816+00:00,835,57109,152284.17841007453,152514.31197098637,152101.31878868566,152157.04168761274,152504.32074121485,152476.62692983472,152292.89559041208,152428.54832751135,TASK1
2026-04-28T10:31:00.816+00:00,835,57110,152288.20172407647,152518.60350592178,152105.3421026876,152161.06500161468,152508.3440552168,152480.91846477013,152297.45534628097,152432.5716415133,TASK1
2026-04-28T10:31:00.816+00:00,835,57111,152273.2484070359,152503.65018888118,152090.38878564702,152146.1116845741,152493.39073817618,152465.96514772953,152282.50202924036,152417.88654540616,TASK1
